      20    2400    0     datakind beginning-row linenumbers
MSCD Version 1.00 Yufeng Chen and Michel A Van Hove
Lawrence Berkeley National Laboratory (LBNL), Berkeley, CA 94720
Copyright (c) Van Hove Group 1997. All rights reserved
--------------------------------------------------------------
angle-resolved photoemission extended fine structure (ARPEFS)
experimental data for Fe 2p3/2 from Fe on STO(100)  excited with hv=1810eV
provided by Pancotti et al. (LNLS in 9, June 2010)
   intial angular momentum (l) = 1
   photon polarization angle (polar,azimuth) = (  30.0,   0.0 ) (deg)
   sample temperature = 300 K
   photoemission angular scan curves
     (20 2400 12.2000)
      20     2400       1       20     120     2400
       1     120       19.5900     12.2000      1.00000      0.00000
      0.00000      39051.50      36356.40      0.074129
      3.00000      36723.10      36356.40      0.010084
      6.00000      38633.10      36356.40      0.062621
      9.00000      39744.90      36356.40      0.093202
      12.00000      39854.80      36356.40      0.096224
      15.00000      38655.20      36356.40      0.063229
      18.00000      37538.60      36356.40      0.032516
      21.00000      38172.50      36356.40      0.049953
      24.00000      37165.90      36356.40      0.022264
      27.00000      37547.80      36356.40      0.032770
      30.00000      37203.60      36356.40      0.023302
      33.00000      38170.70      36356.40      0.049904
      36.00000      37286.70      36356.40      0.025587
      39.00000      36599.30      36356.40      0.006680
      42.00000      35345.00      36356.40      -0.027819
      45.00000      35559.60      36356.40      -0.021918
      48.00000      34400.60      36356.40      -0.053796
      51.00000      34376.70      36356.40      -0.054454
      54.00000      35577.90      36356.40      -0.021413
      57.00000      35412.00      36356.40      -0.025978
      60.00000      34585.00      36356.40      -0.048723
      63.00000      34644.50      36356.40      -0.047087
      66.00000      34256.30      36356.40      -0.057766
      69.00000      33325.20      36356.40      -0.083375
      72.00000      35037.30      36356.40      -0.036284
      75.00000      36271.70      36356.40      -0.002330
      78.00000      36926.40      36356.40      0.015679
      81.00000      36642.90      36356.40      0.007880
      84.00000      37873.70      36356.40      0.041734
      87.00000      37150.60      36356.40      0.021844
      90.00000      37707.60      36356.40      0.037166
      93.00000      37330.10      36356.40      0.026782
      96.00000      38765.00      36356.40      0.066249
      99.00000      36939.30      36356.40      0.016033
      102.00000      35895.30      36356.40      -0.012683
      105.00000      35245.10      36356.40      -0.030566
      108.00000      35481.10      36356.40      -0.024077
      111.00000      33916.70      36356.40      -0.067106
      114.00000      34489.10      36356.40      -0.051363
      117.00000      34881.80      36356.40      -0.040559
      120.00000      33990.30      36356.40      -0.065082
      123.00000      34294.40      36356.40      -0.056717
      126.00000      35039.40      36356.40      -0.036226
      129.00000      34543.90      36356.40      -0.049854
      132.00000      34467.00      36356.40      -0.051970
      135.00000      34833.80      36356.40      -0.041880
      138.00000      34632.40      36356.40      -0.047419
      141.00000      34862.70      36356.40      -0.041084
      144.00000      34896.80      36356.40      -0.040146
      147.00000      35522.50      36356.40      -0.022936
      150.00000      36488.10      36356.40      0.003621
      153.00000      35874.90      36356.40      -0.013244
      156.00000      36174.40      36356.40      -0.005007
      159.00000      37468.00      36356.40      0.030574
      162.00000      37805.50      36356.40      0.039857
      165.00000      36751.20      36356.40      0.010859
      168.00000      37762.90      36356.40      0.038687
      171.00000      38556.70      36356.40      0.060520
      174.00000      38016.30      36356.40      0.045654
      177.00000      39019.80      36356.40      0.073258
      180.00000      39051.50      36356.40      0.074129
      183.00000      39019.80      36356.40      0.073258
      186.00000      38016.30      36356.40      0.045654
      189.00000      38556.70      36356.40      0.060520
      192.00000      37762.90      36356.40      0.038687
      195.00000      36751.20      36356.40      0.010859
      198.00000      37805.50      36356.40      0.039857
      201.00000      37468.00      36356.40      0.030574
      204.00000      36174.40      36356.40      -0.005007
      207.00000      35874.90      36356.40      -0.013244
      210.00000      36488.10      36356.40      0.003621
      213.00000      35522.50      36356.40      -0.022936
      216.00000      34896.80      36356.40      -0.040146
      219.00000      34862.70      36356.40      -0.041084
      222.00000      34632.40      36356.40      -0.047419
      225.00000      34833.80      36356.40      -0.041880
      228.00000      34467.00      36356.40      -0.051970
      231.00000      34543.90      36356.40      -0.049854
      234.00000      35039.40      36356.40      -0.036226
      237.00000      34294.40      36356.40      -0.056717
      240.00000      33990.30      36356.40      -0.065082
      243.00000      34881.80      36356.40      -0.040559
      246.00000      34489.10      36356.40      -0.051363
      249.00000      33916.70      36356.40      -0.067106
      252.00000      35481.10      36356.40      -0.024077
      255.00000      35245.10      36356.40      -0.030566
      258.00000      35895.30      36356.40      -0.012683
      261.00000      36939.30      36356.40      0.016033
      264.00000      38765.00      36356.40      0.066249
      267.00000      37330.10      36356.40      0.026782
      270.00000      37707.60      36356.40      0.037166
      273.00000      37150.60      36356.40      0.021844
      276.00000      37873.70      36356.40      0.041734
      279.00000      36642.90      36356.40      0.007880
      282.00000      36926.40      36356.40      0.015679
      285.00000      36271.70      36356.40      -0.002330
      288.00000      35037.30      36356.40      -0.036284
      291.00000      33325.20      36356.40      -0.083375
      294.00000      34256.30      36356.40      -0.057766
      297.00000      34644.50      36356.40      -0.047087
      300.00000      34585.00      36356.40      -0.048723
      303.00000      35412.00      36356.40      -0.025978
      306.00000      35577.90      36356.40      -0.021413
      309.00000      34376.70      36356.40      -0.054454
      312.00000      34400.60      36356.40      -0.053796
      315.00000      35559.60      36356.40      -0.021918
      318.00000      35345.00      36356.40      -0.027819
      321.00000      36599.30      36356.40      0.006680
      324.00000      37286.70      36356.40      0.025587
      327.00000      38170.70      36356.40      0.049904
      330.00000      37203.60      36356.40      0.023302
      333.00000      37547.80      36356.40      0.032770
      336.00000      37165.90      36356.40      0.022264
      339.00000      38172.50      36356.40      0.049953
      342.00000      37538.60      36356.40      0.032516
      345.00000      38655.20      36356.40      0.063229
      348.00000      39854.80      36356.40      0.096224
      351.00000      39744.90      36356.40      0.093202
      354.00000      38633.10      36356.40      0.062621
      357.00000      36723.10      36356.40      0.010084
      360.00000      39051.50      36356.40      0.074129
       2     120       19.5900     15.2000      1.00000      0.00000
      0.00000      37403.70      34729.10      0.077011
      3.00000      38948.70      34729.10      0.121499
      6.00000      39239.50      34729.10      0.129873
      9.00000      39226.60      34729.10      0.129501
      12.00000      39311.40      34729.10      0.131944
      15.00000      37959.90      34729.10      0.093028
      18.00000      36970.70      34729.10      0.064544
      21.00000      35894.20      34729.10      0.033548
      24.00000      35174.60      34729.10      0.012827
      27.00000      34005.60      34729.10      -0.020832
      30.00000      33774.40      34729.10      -0.027491
      33.00000      33713.70      34729.10      -0.029239
      36.00000      34218.30      34729.10      -0.014710
      39.00000      34567.00      34729.10      -0.004669
      42.00000      34853.00      34729.10      0.003565
      45.00000      34579.60      34729.10      -0.004305
      48.00000      34355.80      34729.10      -0.010749
      51.00000      33764.80      34729.10      -0.027767
      54.00000      32506.20      34729.10      -0.064007
      57.00000      31740.50      34729.10      -0.086055
      60.00000      31998.10      34729.10      -0.078639
      63.00000      31549.30      34729.10      -0.091560
      66.00000      31052.80      34729.10      -0.105858
      69.00000      31585.80      34729.10      -0.090510
      72.00000      31851.90      34729.10      -0.082848
      75.00000      31483.00      34729.10      -0.093469
      78.00000      33136.20      34729.10      -0.045868
      81.00000      35098.70      34729.10      0.010642
      84.00000      36060.80      34729.10      0.038346
      87.00000      37179.30      34729.10      0.070551
      90.00000      37951.60      34729.10      0.092789
      93.00000      37843.20      34729.10      0.089667
      96.00000      36843.80      34729.10      0.060891
      99.00000      37437.90      34729.10      0.077997
      102.00000      36743.10      34729.10      0.057990
      105.00000      35993.80      34729.10      0.036415
      108.00000      35661.70      34729.10      0.026853
      111.00000      34256.80      34729.10      -0.013599
      114.00000      31628.30      34729.10      -0.089286
      117.00000      31603.00      34729.10      -0.090013
      120.00000      31961.10      34729.10      -0.079704
      123.00000      31372.50      34729.10      -0.096651
      126.00000      32586.90      34729.10      -0.061683
      129.00000      33539.50      34729.10      -0.034254
      132.00000      33648.50      34729.10      -0.031116
      135.00000      33113.60      34729.10      -0.046519
      138.00000      33369.40      34729.10      -0.039153
      141.00000      32491.10      34729.10      -0.064442
      144.00000      33903.00      34729.10      -0.023788
      147.00000      34415.70      34729.10      -0.009026
      150.00000      33875.40      34729.10      -0.024583
      153.00000      33073.70      34729.10      -0.047667
      156.00000      34920.10      34729.10      0.005500
      159.00000      33509.10      34729.10      -0.035129
      162.00000      33477.70      34729.10      -0.036035
      165.00000      34671.30      34729.10      -0.001664
      168.00000      35926.40      34729.10      0.034475
      171.00000      36577.10      34729.10      0.053211
      174.00000      36523.90      34729.10      0.051679
      177.00000      41624.20      34729.10      0.198538
      180.00000      37403.70      34729.10      0.077011
      183.00000      41624.20      34729.10      0.198538
      186.00000      36523.90      34729.10      0.051679
      189.00000      36577.10      34729.10      0.053211
      192.00000      35926.40      34729.10      0.034475
      195.00000      34671.30      34729.10      -0.001664
      198.00000      33477.70      34729.10      -0.036035
      201.00000      33509.10      34729.10      -0.035129
      204.00000      34920.10      34729.10      0.005500
      207.00000      33073.70      34729.10      -0.047667
      210.00000      33875.40      34729.10      -0.024583
      213.00000      34415.70      34729.10      -0.009026
      216.00000      33903.00      34729.10      -0.023788
      219.00000      32491.10      34729.10      -0.064442
      222.00000      33369.40      34729.10      -0.039153
      225.00000      33113.60      34729.10      -0.046519
      228.00000      33648.50      34729.10      -0.031116
      231.00000      33539.50      34729.10      -0.034254
      234.00000      32586.90      34729.10      -0.061683
      237.00000      31372.50      34729.10      -0.096651
      240.00000      31961.10      34729.10      -0.079704
      243.00000      31603.00      34729.10      -0.090013
      246.00000      31628.30      34729.10      -0.089286
      249.00000      34256.80      34729.10      -0.013599
      252.00000      35661.70      34729.10      0.026853
      255.00000      35993.80      34729.10      0.036415
      258.00000      36743.10      34729.10      0.057990
      261.00000      37437.90      34729.10      0.077997
      264.00000      36843.80      34729.10      0.060891
      267.00000      37843.20      34729.10      0.089667
      270.00000      37951.60      34729.10      0.092789
      273.00000      37179.30      34729.10      0.070551
      276.00000      36060.80      34729.10      0.038346
      279.00000      35098.70      34729.10      0.010642
      282.00000      33136.20      34729.10      -0.045868
      285.00000      31483.00      34729.10      -0.093469
      288.00000      31851.90      34729.10      -0.082848
      291.00000      31585.80      34729.10      -0.090510
      294.00000      31052.80      34729.10      -0.105858
      297.00000      31549.30      34729.10      -0.091560
      300.00000      31998.10      34729.10      -0.078639
      303.00000      31740.50      34729.10      -0.086055
      306.00000      32506.20      34729.10      -0.064007
      309.00000      33764.80      34729.10      -0.027767
      312.00000      34355.80      34729.10      -0.010749
      315.00000      34579.60      34729.10      -0.004305
      318.00000      34853.00      34729.10      0.003565
      321.00000      34567.00      34729.10      -0.004669
      324.00000      34218.30      34729.10      -0.014710
      327.00000      33713.70      34729.10      -0.029239
      330.00000      33774.40      34729.10      -0.027491
      333.00000      34005.60      34729.10      -0.020832
      336.00000      35174.60      34729.10      0.012827
      339.00000      35894.20      34729.10      0.033548
      342.00000      36970.70      34729.10      0.064544
      345.00000      37959.90      34729.10      0.093028
      348.00000      39311.40      34729.10      0.131944
      351.00000      39226.60      34729.10      0.129501
      354.00000      39239.50      34729.10      0.129873
      357.00000      38948.70      34729.10      0.121499
      360.00000      37403.70      34729.10      0.077011
       3     120       19.5900     18.2000      1.00000      0.00000
      0.00000      48627.90      40841.50      0.190650
      3.00000      44206.80      40841.50      0.082399
      6.00000      47921.30      40841.50      0.173349
      9.00000      47539.80      40841.50      0.164006
      12.00000      45577.00      40841.50      0.115948
      15.00000      44872.20      40841.50      0.098692
      18.00000      45432.70      40841.50      0.112415
      21.00000      44680.00      40841.50      0.093986
      24.00000      42689.40      40841.50      0.045246
      27.00000      42100.60      40841.50      0.030828
      30.00000      41181.60      40841.50      0.008327
      33.00000      39489.10      40841.50      -0.033113
      36.00000      39597.70      40841.50      -0.030454
      39.00000      40855.70      40841.50      0.000348
      42.00000      42851.90      40841.50      0.049226
      45.00000      41022.30      40841.50      0.004427
      48.00000      42338.20      40841.50      0.036646
      51.00000      41178.60      40841.50      0.008255
      54.00000      39879.00      40841.50      -0.023567
      57.00000      37467.60      40841.50      -0.082609
      60.00000      37791.60      40841.50      -0.074676
      63.00000      36361.50      40841.50      -0.109692
      66.00000      36209.00      40841.50      -0.113426
      69.00000      34962.20      40841.50      -0.143954
      72.00000      35262.10      40841.50      -0.136612
      75.00000      36036.10      40841.50      -0.117660
      78.00000      36369.30      40841.50      -0.109502
      81.00000      37475.90      40841.50      -0.082405
      84.00000      39799.20      40841.50      -0.025520
      87.00000      40206.70      40841.50      -0.015543
      90.00000      40938.40      40841.50      0.002373
      93.00000      41404.60      40841.50      0.013787
      96.00000      42624.50      40841.50      0.043657
      99.00000      40698.60      40841.50      -0.003499
      102.00000      42167.80      40841.50      0.032474
      105.00000      40620.10      40841.50      -0.005421
      108.00000      39705.40      40841.50      -0.027818
      111.00000      38225.90      40841.50      -0.064043
      114.00000      38230.00      40841.50      -0.063941
      117.00000      37273.50      40841.50      -0.087362
      120.00000      38121.80      40841.50      -0.066592
      123.00000      37963.70      40841.50      -0.070462
      126.00000      38563.20      40841.50      -0.055784
      129.00000      39813.90      40841.50      -0.025160
      132.00000      40280.50      40841.50      -0.013737
      135.00000      40638.50      40841.50      -0.004971
      138.00000      43385.20      40841.50      0.062281
      141.00000      41596.80      40841.50      0.018493
      144.00000      41325.10      40841.50      0.011840
      147.00000      40633.80      40841.50      -0.005085
      150.00000      39813.60      40841.50      -0.025167
      153.00000      37484.10      40841.50      -0.082205
      156.00000      38043.40      40841.50      -0.068511
      159.00000      39057.20      40841.50      -0.043689
      162.00000      39553.40      40841.50      -0.031538
      165.00000      40490.90      40841.50      -0.008583
      168.00000      41879.00      40841.50      0.025403
      171.00000      44254.10      40841.50      0.083558
      174.00000      44404.10      40841.50      0.087231
      177.00000      51315.40      40841.50      0.256453
      180.00000      48627.90      40841.50      0.190650
      183.00000      51315.40      40841.50      0.256453
      186.00000      44404.10      40841.50      0.087231
      189.00000      44254.10      40841.50      0.083558
      192.00000      41879.00      40841.50      0.025403
      195.00000      40490.90      40841.50      -0.008583
      198.00000      39553.40      40841.50      -0.031538
      201.00000      39057.20      40841.50      -0.043689
      204.00000      38043.40      40841.50      -0.068511
      207.00000      37484.10      40841.50      -0.082205
      210.00000      39813.60      40841.50      -0.025167
      213.00000      40633.80      40841.50      -0.005085
      216.00000      41325.10      40841.50      0.011840
      219.00000      41596.80      40841.50      0.018493
      222.00000      43385.20      40841.50      0.062281
      225.00000      40638.50      40841.50      -0.004971
      228.00000      40280.50      40841.50      -0.013737
      231.00000      39813.90      40841.50      -0.025160
      234.00000      38563.20      40841.50      -0.055784
      237.00000      37963.70      40841.50      -0.070462
      240.00000      38121.80      40841.50      -0.066592
      243.00000      37273.50      40841.50      -0.087362
      246.00000      38230.00      40841.50      -0.063941
      249.00000      38225.90      40841.50      -0.064043
      252.00000      39705.40      40841.50      -0.027818
      255.00000      40620.10      40841.50      -0.005421
      258.00000      42167.80      40841.50      0.032474
      261.00000      40698.60      40841.50      -0.003499
      264.00000      42624.50      40841.50      0.043657
      267.00000      41404.60      40841.50      0.013787
      270.00000      40938.40      40841.50      0.002373
      273.00000      40206.70      40841.50      -0.015543
      276.00000      39799.20      40841.50      -0.025520
      279.00000      37475.90      40841.50      -0.082405
      282.00000      36369.30      40841.50      -0.109502
      285.00000      36036.10      40841.50      -0.117660
      288.00000      35262.10      40841.50      -0.136612
      291.00000      34962.20      40841.50      -0.143954
      294.00000      36209.00      40841.50      -0.113426
      297.00000      36361.50      40841.50      -0.109692
      300.00000      37791.60      40841.50      -0.074676
      303.00000      37467.60      40841.50      -0.082609
      306.00000      39879.00      40841.50      -0.023567
      309.00000      41178.60      40841.50      0.008255
      312.00000      42338.20      40841.50      0.036646
      315.00000      41022.30      40841.50      0.004427
      318.00000      42851.90      40841.50      0.049226
      321.00000      40855.70      40841.50      0.000348
      324.00000      39597.70      40841.50      -0.030454
      327.00000      39489.10      40841.50      -0.033113
      330.00000      41181.60      40841.50      0.008327
      333.00000      42100.60      40841.50      0.030828
      336.00000      42689.40      40841.50      0.045246
      339.00000      44680.00      40841.50      0.093986
      342.00000      45432.70      40841.50      0.112415
      345.00000      44872.20      40841.50      0.098692
      348.00000      45577.00      40841.50      0.115948
      351.00000      47539.80      40841.50      0.164006
      354.00000      47921.30      40841.50      0.173349
      357.00000      44206.80      40841.50      0.082399
      360.00000      48627.90      40841.50      0.190650
       4     120       19.5900     21.2000      1.00000      0.00000
      0.00000      52344.50      44706.70      0.170844
      3.00000      50309.30      44706.70      0.125321
      6.00000      49513.60      44706.70      0.107523
      9.00000      48308.90      44706.70      0.080575
      12.00000      49047.90      44706.70      0.097104
      15.00000      47833.70      44706.70      0.069946
      18.00000      46956.40      44706.70      0.050323
      21.00000      45139.20      44706.70      0.009674
      24.00000      43791.50      44706.70      -0.020470
      27.00000      42112.80      44706.70      -0.058020
      30.00000      41818.70      44706.70      -0.064598
      33.00000      42387.20      44706.70      -0.051881
      36.00000      44282.30      44706.70      -0.009491
      39.00000      43551.30      44706.70      -0.025843
      42.00000      43644.20      44706.70      -0.023766
      45.00000      43598.10      44706.70      -0.024796
      48.00000      43347.00      44706.70      -0.030412
      51.00000      44131.50      44706.70      -0.012866
      54.00000      47354.20      44706.70      0.059221
      57.00000      48755.10      44706.70      0.090555
      60.00000      47311.60      44706.70      0.058268
      63.00000      44957.40      44706.70      0.005609
      66.00000      43929.60      44706.70      -0.017382
      69.00000      41211.30      44706.70      -0.078184
      72.00000      38808.70      44706.70      -0.131925
      75.00000      38618.90      44706.70      -0.136171
      78.00000      40054.50      44706.70      -0.104059
      81.00000      41152.00      44706.70      -0.079511
      84.00000      40880.70      44706.70      -0.085579
      87.00000      45088.80      44706.70      0.008548
      90.00000      47324.30      44706.70      0.058551
      93.00000      49386.50      44706.70      0.104679
      96.00000      48192.30      44706.70      0.077967
      99.00000      51180.10      44706.70      0.144797
      102.00000      47311.30      44706.70      0.058260
      105.00000      46451.40      44706.70      0.039027
      108.00000      43190.90      44706.70      -0.033904
      111.00000      41676.30      44706.70      -0.067783
      114.00000      38431.70      44706.70      -0.140360
      117.00000      37086.00      44706.70      -0.170459
      120.00000      37774.40      44706.70      -0.155060
      123.00000      38646.80      44706.70      -0.135547
      126.00000      41673.40      44706.70      -0.067849
      129.00000      43980.50      44706.70      -0.016242
      132.00000      46357.80      44706.70      0.036933
      135.00000      46180.00      44706.70      0.032955
      138.00000      47242.90      44706.70      0.056731
      141.00000      47336.90      44706.70      0.058833
      144.00000      47468.50      44706.70      0.061777
      147.00000      46459.80      44706.70      0.039213
      150.00000      44880.80      44706.70      0.003895
      153.00000      44693.50      44706.70      -0.000295
      156.00000      43368.00      44706.70      -0.029943
      159.00000      42580.00      44706.70      -0.047569
      162.00000      42594.90      44706.70      -0.047237
      165.00000      45218.70      44706.70      0.011452
      168.00000      45295.90      44706.70      0.013181
      171.00000      46496.30      44706.70      0.040030
      174.00000      45278.80      44706.70      0.012797
      177.00000      48399.90      44706.70      0.082611
      180.00000      52344.50      44706.70      0.170843
      183.00000      48399.90      44706.70      0.082611
      186.00000      45278.80      44706.70      0.012797
      189.00000      46496.30      44706.70      0.040030
      192.00000      45295.90      44706.70      0.013181
      195.00000      45218.70      44706.70      0.011452
      198.00000      42594.90      44706.70      -0.047237
      201.00000      42580.00      44706.70      -0.047569
      204.00000      43368.00      44706.70      -0.029943
      207.00000      44693.50      44706.70      -0.000295
      210.00000      44880.80      44706.70      0.003895
      213.00000      46459.80      44706.70      0.039213
      216.00000      47468.50      44706.70      0.061777
      219.00000      47336.90      44706.70      0.058833
      222.00000      47242.90      44706.70      0.056731
      225.00000      46180.00      44706.70      0.032955
      228.00000      46357.80      44706.70      0.036933
      231.00000      43980.50      44706.70      -0.016242
      234.00000      41673.40      44706.70      -0.067849
      237.00000      38646.80      44706.70      -0.135547
      240.00000      37774.40      44706.70      -0.155060
      243.00000      37086.00      44706.70      -0.170459
      246.00000      38431.70      44706.70      -0.140360
      249.00000      41676.30      44706.70      -0.067783
      252.00000      43190.90      44706.70      -0.033904
      255.00000      46451.40      44706.70      0.039027
      258.00000      47311.30      44706.70      0.058260
      261.00000      51180.10      44706.70      0.144797
      264.00000      48192.30      44706.70      0.077967
      267.00000      49386.50      44706.70      0.104679
      270.00000      47324.30      44706.70      0.058551
      273.00000      45088.80      44706.70      0.008548
      276.00000      40880.70      44706.70      -0.085579
      279.00000      41152.00      44706.70      -0.079511
      282.00000      40054.50      44706.70      -0.104059
      285.00000      38618.90      44706.70      -0.136171
      288.00000      38808.70      44706.70      -0.131925
      291.00000      41211.30      44706.70      -0.078184
      294.00000      43929.60      44706.70      -0.017382
      297.00000      44957.40      44706.70      0.005609
      300.00000      47311.60      44706.70      0.058268
      303.00000      48755.10      44706.70      0.090555
      306.00000      47354.20      44706.70      0.059221
      309.00000      44131.50      44706.70      -0.012866
      312.00000      43347.00      44706.70      -0.030412
      315.00000      43598.10      44706.70      -0.024796
      318.00000      43644.20      44706.70      -0.023766
      321.00000      43551.30      44706.70      -0.025843
      324.00000      44282.30      44706.70      -0.009491
      327.00000      42387.20      44706.70      -0.051881
      330.00000      41818.70      44706.70      -0.064598
      333.00000      42112.80      44706.70      -0.058020
      336.00000      43791.50      44706.70      -0.020470
      339.00000      45139.20      44706.70      0.009674
      342.00000      46956.40      44706.70      0.050323
      345.00000      47833.70      44706.70      0.069946
      348.00000      49047.90      44706.70      0.097104
      351.00000      48308.90      44706.70      0.080575
      354.00000      49513.60      44706.70      0.107523
      357.00000      50309.30      44706.70      0.125321
      360.00000      52344.50      44706.70      0.170844
       5     120       19.5900     24.2000      1.00000      0.00000
      0.00000      45393.90      42653.40      0.064251
      3.00000      46733.90      42653.40      0.095668
      6.00000      45606.90      42653.40      0.069244
      9.00000      45290.60      42653.40      0.061829
      12.00000      44754.10      42653.40      0.049251
      15.00000      42639.10      42653.40      -0.000336
      18.00000      43194.80      42653.40      0.012693
      21.00000      43907.30      42653.40      0.029398
      24.00000      43461.50      42653.40      0.018945
      27.00000      41946.00      42653.40      -0.016584
      30.00000      43894.60      42653.40      0.029100
      33.00000      41344.50      42653.40      -0.030687
      36.00000      39531.80      42653.40      -0.073184
      39.00000      38371.10      42653.40      -0.100397
      42.00000      39481.80      42653.40      -0.074357
      45.00000      38277.70      42653.40      -0.102588
      48.00000      41365.70      42653.40      -0.030189
      51.00000      42759.90      42653.40      0.002496
      54.00000      43773.50      42653.40      0.026260
      57.00000      43604.50      42653.40      0.022300
      60.00000      43268.80      42653.40      0.014429
      63.00000      44313.90      42653.40      0.038930
      66.00000      42293.40      42653.40      -0.008441
      69.00000      41652.50      42653.40      -0.023466
      72.00000      39773.40      42653.40      -0.067522
      75.00000      40892.10      42653.40      -0.041294
      78.00000      38243.20      42653.40      -0.103397
      81.00000      40003.60      42653.40      -0.062125
      84.00000      41592.60      42653.40      -0.024870
      87.00000      44032.50      42653.40      0.032332
      90.00000      44681.60      42653.40      0.047552
      93.00000      48453.00      42653.40      0.135972
      96.00000      48100.60      42653.40      0.127710
      99.00000      49107.10      42653.40      0.151306
      102.00000      46836.10      42653.40      0.098063
      105.00000      46089.50      42653.40      0.080560
      108.00000      42846.80      42653.40      0.004535
      111.00000      40201.10      42653.40      -0.057493
      114.00000      36332.00      42653.40      -0.148204
      117.00000      37720.60      42653.40      -0.115649
      120.00000      37604.80      42653.40      -0.118362
      123.00000      37303.20      42653.40      -0.125435
      126.00000      40959.00      42653.40      -0.039725
      129.00000      42561.90      42653.40      -0.002146
      132.00000      42062.50      42653.40      -0.013853
      135.00000      42663.20      42653.40      0.000230
      138.00000      43652.00      42653.40      0.023411
      141.00000      43013.30      42653.40      0.008438
      144.00000      42950.90      42653.40      0.006976
      147.00000      45037.20      42653.40      0.055889
      150.00000      44305.00      42653.40      0.038722
      153.00000      44145.50      42653.40      0.034983
      156.00000      43727.80      42653.40      0.025189
      159.00000      43590.00      42653.40      0.021958
      162.00000      40434.70      42653.40      -0.052017
      165.00000      40249.60      42653.40      -0.056357
      168.00000      40972.30      42653.40      -0.039413
      171.00000      40169.60      42653.40      -0.058232
      174.00000      47428.80      42653.40      0.111958
      177.00000      44604.50      42653.40      0.045743
      180.00000      45393.90      42653.40      0.064250
      183.00000      44604.50      42653.40      0.045743
      186.00000      47428.80      42653.40      0.111958
      189.00000      40169.60      42653.40      -0.058232
      192.00000      40972.30      42653.40      -0.039413
      195.00000      40249.60      42653.40      -0.056357
      198.00000      40434.70      42653.40      -0.052017
      201.00000      43590.00      42653.40      0.021958
      204.00000      43727.80      42653.40      0.025189
      207.00000      44145.50      42653.40      0.034983
      210.00000      44305.00      42653.40      0.038722
      213.00000      45037.20      42653.40      0.055889
      216.00000      42950.90      42653.40      0.006976
      219.00000      43013.30      42653.40      0.008438
      222.00000      43652.00      42653.40      0.023411
      225.00000      42663.20      42653.40      0.000230
      228.00000      42062.50      42653.40      -0.013853
      231.00000      42561.90      42653.40      -0.002146
      234.00000      40959.00      42653.40      -0.039725
      237.00000      37303.20      42653.40      -0.125435
      240.00000      37604.80      42653.40      -0.118362
      243.00000      37720.60      42653.40      -0.115649
      246.00000      36332.00      42653.40      -0.148204
      249.00000      40201.10      42653.40      -0.057493
      252.00000      42846.80      42653.40      0.004535
      255.00000      46089.50      42653.40      0.080560
      258.00000      46836.10      42653.40      0.098063
      261.00000      49107.10      42653.40      0.151306
      264.00000      48100.60      42653.40      0.127710
      267.00000      48453.00      42653.40      0.135972
      270.00000      44681.60      42653.40      0.047552
      273.00000      44032.50      42653.40      0.032332
      276.00000      41592.60      42653.40      -0.024870
      279.00000      40003.60      42653.40      -0.062125
      282.00000      38243.20      42653.40      -0.103397
      285.00000      40892.10      42653.40      -0.041294
      288.00000      39773.40      42653.40      -0.067522
      291.00000      41652.50      42653.40      -0.023466
      294.00000      42293.40      42653.40      -0.008441
      297.00000      44313.90      42653.40      0.038930
      300.00000      43268.80      42653.40      0.014429
      303.00000      43604.50      42653.40      0.022300
      306.00000      43773.50      42653.40      0.026260
      309.00000      42759.90      42653.40      0.002496
      312.00000      41365.70      42653.40      -0.030189
      315.00000      38277.70      42653.40      -0.102588
      318.00000      39481.80      42653.40      -0.074357
      321.00000      38371.10      42653.40      -0.100397
      324.00000      39531.80      42653.40      -0.073184
      327.00000      41344.50      42653.40      -0.030687
      330.00000      43894.60      42653.40      0.029100
      333.00000      41946.00      42653.40      -0.016584
      336.00000      43461.50      42653.40      0.018945
      339.00000      43907.30      42653.40      0.029398
      342.00000      43194.80      42653.40      0.012693
      345.00000      42639.10      42653.40      -0.000336
      348.00000      44754.10      42653.40      0.049251
      351.00000      45290.60      42653.40      0.061829
      354.00000      45606.90      42653.40      0.069244
      357.00000      46733.90      42653.40      0.095668
      360.00000      45393.90      42653.40      0.064251
       6     120       19.5900     27.2000      1.00000      0.00000
      0.00000      43771.70      41635.40      0.051309
      3.00000      48997.40      41635.40      0.176821
      6.00000      42569.60      41635.40      0.022437
      9.00000      42422.60      41635.40      0.018906
      12.00000      41516.80      41635.40      -0.002847
      15.00000      43346.50      41635.40      0.041099
      18.00000      43738.10      41635.40      0.050504
      21.00000      43566.70      41635.40      0.046387
      24.00000      42818.10      41635.40      0.028406
      27.00000      39683.50      41635.40      -0.046881
      30.00000      38683.20      41635.40      -0.070905
      33.00000      37728.90      41635.40      -0.093827
      36.00000      40097.50      41635.40      -0.036936
      39.00000      41104.10      41635.40      -0.012760
      42.00000      43764.00      41635.40      0.051126
      45.00000      43848.00      41635.40      0.053142
      48.00000      44613.70      41635.40      0.071534
      51.00000      43299.20      41635.40      0.039962
      54.00000      40722.40      41635.40      -0.021928
      57.00000      40961.20      41635.40      -0.016193
      60.00000      40985.50      41635.40      -0.015608
      63.00000      39453.80      41635.40      -0.052396
      66.00000      39252.90      41635.40      -0.057223
      69.00000      40816.60      41635.40      -0.019666
      72.00000      40008.00      41635.40      -0.039088
      75.00000      38312.80      41635.40      -0.079802
      78.00000      36756.50      41635.40      -0.117181
      81.00000      37495.90      41635.40      -0.099423
      84.00000      39263.90      41635.40      -0.056959
      87.00000      41651.60      41635.40      0.000388
      90.00000      44417.30      41635.40      0.066816
      93.00000      47334.00      41635.40      0.136871
      96.00000      46938.20      41635.40      0.127363
      99.00000      47937.40      41635.40      0.151362
      102.00000      45756.70      41635.40      0.098986
      105.00000      44092.60      41635.40      0.059017
      108.00000      41476.00      41635.40      -0.003829
      111.00000      40939.60      41635.40      -0.016712
      114.00000      35964.60      41635.40      -0.136201
      117.00000      34848.50      41635.40      -0.163007
      120.00000      36237.80      41635.40      -0.129639
      123.00000      37538.00      41635.40      -0.098410
      126.00000      38357.20      41635.40      -0.078736
      129.00000      41627.50      41635.40      -0.000189
      132.00000      44216.30      41635.40      0.061989
      135.00000      42682.70      41635.40      0.025155
      138.00000      44026.00      41635.40      0.057419
      141.00000      43166.40      41635.40      0.036773
      144.00000      42727.20      41635.40      0.026224
      147.00000      41227.20      41635.40      -0.009803
      150.00000      43731.40      41635.40      0.050343
      153.00000      42736.10      41635.40      0.026438
      156.00000      40794.10      41635.40      -0.020206
      159.00000      40183.70      41635.40      -0.034868
      162.00000      41150.60      41635.40      -0.011642
      165.00000      39757.20      41635.40      -0.045111
      168.00000      40902.50      41635.40      -0.017603
      171.00000      43015.60      41635.40      0.033149
      174.00000      42385.40      41635.40      0.018014
      177.00000      40704.30      41635.40      -0.022364
      180.00000      43771.60      41635.40      0.051308
      183.00000      40704.30      41635.40      -0.022364
      186.00000      42385.40      41635.40      0.018014
      189.00000      43015.60      41635.40      0.033149
      192.00000      40902.50      41635.40      -0.017603
      195.00000      39757.20      41635.40      -0.045111
      198.00000      41150.60      41635.40      -0.011642
      201.00000      40183.70      41635.40      -0.034868
      204.00000      40794.10      41635.40      -0.020206
      207.00000      42736.10      41635.40      0.026438
      210.00000      43731.40      41635.40      0.050343
      213.00000      41227.20      41635.40      -0.009803
      216.00000      42727.20      41635.40      0.026224
      219.00000      43166.40      41635.40      0.036773
      222.00000      44026.00      41635.40      0.057419
      225.00000      42682.70      41635.40      0.025155
      228.00000      44216.30      41635.40      0.061989
      231.00000      41627.50      41635.40      -0.000189
      234.00000      38357.20      41635.40      -0.078736
      237.00000      37538.00      41635.40      -0.098410
      240.00000      36237.80      41635.40      -0.129639
      243.00000      34848.50      41635.40      -0.163007
      246.00000      35964.60      41635.40      -0.136201
      249.00000      40939.60      41635.40      -0.016712
      252.00000      41476.00      41635.40      -0.003829
      255.00000      44092.60      41635.40      0.059017
      258.00000      45756.70      41635.40      0.098986
      261.00000      47937.40      41635.40      0.151362
      264.00000      46938.20      41635.40      0.127363
      267.00000      47334.00      41635.40      0.136871
      270.00000      44417.30      41635.40      0.066816
      273.00000      41651.60      41635.40      0.000388
      276.00000      39263.90      41635.40      -0.056959
      279.00000      37495.90      41635.40      -0.099423
      282.00000      36756.50      41635.40      -0.117181
      285.00000      38312.80      41635.40      -0.079802
      288.00000      40008.00      41635.40      -0.039088
      291.00000      40816.60      41635.40      -0.019666
      294.00000      39252.90      41635.40      -0.057223
      297.00000      39453.80      41635.40      -0.052396
      300.00000      40985.50      41635.40      -0.015608
      303.00000      40961.20      41635.40      -0.016193
      306.00000      40722.40      41635.40      -0.021928
      309.00000      43299.20      41635.40      0.039962
      312.00000      44613.70      41635.40      0.071534
      315.00000      43848.00      41635.40      0.053142
      318.00000      43764.00      41635.40      0.051126
      321.00000      41104.10      41635.40      -0.012760
      324.00000      40097.50      41635.40      -0.036936
      327.00000      37728.90      41635.40      -0.093827
      330.00000      38683.20      41635.40      -0.070905
      333.00000      39683.50      41635.40      -0.046881
      336.00000      42818.10      41635.40      0.028406
      339.00000      43566.70      41635.40      0.046387
      342.00000      43738.10      41635.40      0.050504
      345.00000      43346.50      41635.40      0.041099
      348.00000      41516.80      41635.40      -0.002847
      351.00000      42422.60      41635.40      0.018906
      354.00000      42569.60      41635.40      0.022437
      357.00000      48997.40      41635.40      0.176821
      360.00000      43771.70      41635.40      0.051309
       7     120       19.5900     30.2000      1.00000      0.00000
      0.00000      97051.70      94706.40      0.024765
      3.00000      97918.60      94706.40      0.033918
      6.00000      95786.20      94706.40      0.011402
      9.00000      95719.80      94706.40      0.010701
      12.00000      93896.60      94706.40      -0.008551
      15.00000      98592.70      94706.40      0.041036
      18.00000      99109.00      94706.40      0.046487
      21.00000      96900.40      94706.40      0.023167
      24.00000      94122.30      94706.40      -0.006167
      27.00000      96919.40      94706.40      0.023367
      30.00000      91074.00      94706.40      -0.038353
      33.00000      89103.50      94706.40      -0.059160
      36.00000      89482.20      94706.40      -0.055162
      39.00000      94333.50      94706.40      -0.003937
      42.00000      92495.20      94706.40      -0.023348
      45.00000      98818.40      94706.40      0.043419
      48.00000      101529.00      94706.40      0.072043
      51.00000      106021.00      94706.40      0.119467
      54.00000      102558.00      94706.40      0.082907
      57.00000      101494.00      94706.40      0.071672
      60.00000      99173.10      94706.40      0.047164
      63.00000      96071.80      94706.40      0.014417
      66.00000      96321.00      94706.40      0.017049
      69.00000      95116.10      94706.40      0.004327
      72.00000      95182.30      94706.40      0.005025
      75.00000      96445.60      94706.40      0.018364
      78.00000      95994.90      94706.40      0.013606
      81.00000      94051.10      94706.40      -0.006919
      84.00000      93814.30      94706.40      -0.009419
      87.00000      97048.60      94706.40      0.024732
      90.00000      98503.80      94706.40      0.040096
      93.00000      102425.00      94706.40      0.081496
      96.00000      102494.00      94706.40      0.082232
      99.00000      100615.00      94706.40      0.062389
      102.00000      96745.10      94706.40      0.021527
      105.00000      95412.80      94706.40      0.007459
      108.00000      91198.40      94706.40      -0.037040
      111.00000      90543.60      94706.40      -0.043954
      114.00000      94323.10      94706.40      -0.004047
      117.00000      94400.80      94706.40      -0.003226
      120.00000      93121.30      94706.40      -0.016737
      123.00000      90513.30      94706.40      -0.044274
      126.00000      92546.00      94706.40      -0.022811
      129.00000      94015.40      94706.40      -0.007296
      132.00000      93933.90      94706.40      -0.008156
      135.00000      90991.10      94706.40      -0.039229
      138.00000      91931.90      94706.40      -0.029296
      141.00000      91010.10      94706.40      -0.039029
      144.00000      88768.60      94706.40      -0.062696
      147.00000      89782.70      94706.40      -0.051989
      150.00000      91693.00      94706.40      -0.031817
      153.00000      93579.50      94706.40      -0.011899
      156.00000      89790.30      94706.40      -0.051908
      159.00000      86710.10      94706.40      -0.084432
      162.00000      87456.70      94706.40      -0.076549
      165.00000      83539.30      94706.40      -0.117913
      168.00000      83838.40      94706.40      -0.114754
      171.00000      88264.40      94706.40      -0.068021
      174.00000      104239.00      94706.40      0.100656
      177.00000      97850.60      94706.40      0.033199
      180.00000      97051.70      94706.40      0.024764
      183.00000      97850.60      94706.40      0.033199
      186.00000      104239.00      94706.40      0.100656
      189.00000      88264.40      94706.40      -0.068021
      192.00000      83838.40      94706.40      -0.114754
      195.00000      83539.30      94706.40      -0.117913
      198.00000      87456.70      94706.40      -0.076549
      201.00000      86710.10      94706.40      -0.084432
      204.00000      89790.30      94706.40      -0.051908
      207.00000      93579.50      94706.40      -0.011899
      210.00000      91693.00      94706.40      -0.031817
      213.00000      89782.70      94706.40      -0.051989
      216.00000      88768.60      94706.40      -0.062696
      219.00000      91010.10      94706.40      -0.039029
      222.00000      91931.90      94706.40      -0.029296
      225.00000      90991.10      94706.40      -0.039229
      228.00000      93933.90      94706.40      -0.008156
      231.00000      94015.40      94706.40      -0.007296
      234.00000      92546.00      94706.40      -0.022811
      237.00000      90513.30      94706.40      -0.044274
      240.00000      93121.30      94706.40      -0.016737
      243.00000      94400.80      94706.40      -0.003226
      246.00000      94323.10      94706.40      -0.004047
      249.00000      90543.60      94706.40      -0.043954
      252.00000      91198.40      94706.40      -0.037040
      255.00000      95412.80      94706.40      0.007459
      258.00000      96745.10      94706.40      0.021527
      261.00000      100615.00      94706.40      0.062389
      264.00000      102494.00      94706.40      0.082232
      267.00000      102425.00      94706.40      0.081496
      270.00000      98503.80      94706.40      0.040096
      273.00000      97048.60      94706.40      0.024732
      276.00000      93814.30      94706.40      -0.009419
      279.00000      94051.10      94706.40      -0.006919
      282.00000      95994.90      94706.40      0.013606
      285.00000      96445.60      94706.40      0.018364
      288.00000      95182.30      94706.40      0.005025
      291.00000      95116.10      94706.40      0.004327
      294.00000      96321.00      94706.40      0.017049
      297.00000      96071.80      94706.40      0.014417
      300.00000      99173.10      94706.40      0.047164
      303.00000      101494.00      94706.40      0.071672
      306.00000      102558.00      94706.40      0.082907
      309.00000      106021.00      94706.40      0.119467
      312.00000      101529.00      94706.40      0.072043
      315.00000      98818.40      94706.40      0.043419
      318.00000      92495.20      94706.40      -0.023348
      321.00000      94333.50      94706.40      -0.003937
      324.00000      89482.20      94706.40      -0.055162
      327.00000      89103.50      94706.40      -0.059160
      330.00000      91074.00      94706.40      -0.038353
      333.00000      96919.40      94706.40      0.023367
      336.00000      94122.30      94706.40      -0.006167
      339.00000      96900.40      94706.40      0.023167
      342.00000      99109.00      94706.40      0.046487
      345.00000      98592.70      94706.40      0.041036
      348.00000      93896.60      94706.40      -0.008551
      351.00000      95719.80      94706.40      0.010701
      354.00000      95786.20      94706.40      0.011402
      357.00000      97918.60      94706.40      0.033918
      360.00000      97051.70      94706.40      0.024765
       8     120       19.5900     33.2000      1.00000      0.00000
      0.00000      84659.30      94151.40      -0.100817
      3.00000      88714.70      94151.40      -0.057744
      6.00000      89510.30      94151.40      -0.049294
      9.00000      92584.90      94151.40      -0.016638
      12.00000      93201.40      94151.40      -0.010090
      15.00000      94165.50      94151.40      0.000150
      18.00000      94643.20      94151.40      0.005224
      21.00000      92462.40      94151.40      -0.017939
      24.00000      92622.70      94151.40      -0.016237
      27.00000      90238.40      94151.40      -0.041561
      30.00000      90382.10      94151.40      -0.040034
      33.00000      89866.60      94151.40      -0.045509
      36.00000      92711.40      94151.40      -0.015295
      39.00000      93510.20      94151.40      -0.006810
      42.00000      98065.80      94151.40      0.041576
      45.00000      99418.00      94151.40      0.055938
      48.00000      103607.00      94151.40      0.100434
      51.00000      101325.00      94151.40      0.076194
      54.00000      102655.00      94151.40      0.090317
      57.00000      103146.00      94151.40      0.095535
      60.00000      101269.00      94151.40      0.075595
      63.00000      100620.00      94151.40      0.068703
      66.00000      101546.00      94151.40      0.078542
      69.00000      99568.70      94151.40      0.057539
      72.00000      94772.40      94151.40      0.006596
      75.00000      97946.30      94151.40      0.040307
      78.00000      93655.60      94151.40      -0.005265
      81.00000      95702.20      94151.40      0.016472
      84.00000      97868.90      94151.40      0.039484
      87.00000      104193.00      94151.40      0.106659
      90.00000      101928.00      94151.40      0.082598
      93.00000      101546.00      94151.40      0.078540
      96.00000      101949.00      94151.40      0.082822
      99.00000      98137.40      94151.40      0.042337
      102.00000      93438.20      94151.40      -0.007575
      105.00000      91299.20      94151.40      -0.030294
      108.00000      90130.40      94151.40      -0.042708
      111.00000      83489.90      94151.40      -0.113238
      114.00000      89378.30      94151.40      -0.050696
      117.00000      86589.60      94151.40      -0.080315
      120.00000      84420.60      94151.40      -0.103352
      123.00000      88308.20      94151.40      -0.062062
      126.00000      90743.10      94151.40      -0.036200
      129.00000      85192.00      94151.40      -0.095159
      132.00000      86931.80      94151.40      -0.076680
      135.00000      92649.20      94151.40      -0.015955
      138.00000      92507.70      94151.40      -0.017458
      141.00000      95358.50      94151.40      0.012821
      144.00000      97692.30      94151.40      0.037609
      147.00000      97440.70      94151.40      0.034937
      150.00000      96039.00      94151.40      0.020049
      153.00000      94174.00      94151.40      0.000240
      156.00000      91589.70      94151.40      -0.027208
      159.00000      90066.50      94151.40      -0.043386
      162.00000      93204.30      94151.40      -0.010059
      165.00000      90412.60      94151.40      -0.039710
      168.00000      91166.90      94151.40      -0.031698
      171.00000      92992.30      94151.40      -0.012311
      174.00000      91889.10      94151.40      -0.024028
      177.00000      93785.30      94151.40      -0.003888
      180.00000      84659.30      94151.40      -0.100817
      183.00000      93785.30      94151.40      -0.003888
      186.00000      91889.10      94151.40      -0.024028
      189.00000      92992.30      94151.40      -0.012311
      192.00000      91166.90      94151.40      -0.031698
      195.00000      90412.60      94151.40      -0.039710
      198.00000      93204.30      94151.40      -0.010059
      201.00000      90066.50      94151.40      -0.043386
      204.00000      91589.70      94151.40      -0.027208
      207.00000      94174.00      94151.40      0.000240
      210.00000      96039.00      94151.40      0.020049
      213.00000      97440.70      94151.40      0.034937
      216.00000      97692.30      94151.40      0.037609
      219.00000      95358.50      94151.40      0.012821
      222.00000      92507.70      94151.40      -0.017458
      225.00000      92649.20      94151.40      -0.015955
      228.00000      86931.80      94151.40      -0.076680
      231.00000      85192.00      94151.40      -0.095159
      234.00000      90743.10      94151.40      -0.036200
      237.00000      88308.20      94151.40      -0.062062
      240.00000      84420.60      94151.40      -0.103352
      243.00000      86589.60      94151.40      -0.080315
      246.00000      89378.30      94151.40      -0.050696
      249.00000      83489.90      94151.40      -0.113238
      252.00000      90130.40      94151.40      -0.042708
      255.00000      91299.20      94151.40      -0.030294
      258.00000      93438.20      94151.40      -0.007575
      261.00000      98137.40      94151.40      0.042337
      264.00000      101949.00      94151.40      0.082822
      267.00000      101546.00      94151.40      0.078540
      270.00000      101928.00      94151.40      0.082598
      273.00000      104193.00      94151.40      0.106659
      276.00000      97868.90      94151.40      0.039484
      279.00000      95702.20      94151.40      0.016472
      282.00000      93655.60      94151.40      -0.005265
      285.00000      97946.30      94151.40      0.040307
      288.00000      94772.40      94151.40      0.006596
      291.00000      99568.70      94151.40      0.057539
      294.00000      101546.00      94151.40      0.078542
      297.00000      100620.00      94151.40      0.068703
      300.00000      101269.00      94151.40      0.075595
      303.00000      103146.00      94151.40      0.095535
      306.00000      102655.00      94151.40      0.090317
      309.00000      101325.00      94151.40      0.076194
      312.00000      103607.00      94151.40      0.100434
      315.00000      99418.00      94151.40      0.055938
      318.00000      98065.80      94151.40      0.041576
      321.00000      93510.20      94151.40      -0.006810
      324.00000      92711.40      94151.40      -0.015295
      327.00000      89866.60      94151.40      -0.045509
      330.00000      90382.10      94151.40      -0.040034
      333.00000      90238.40      94151.40      -0.041561
      336.00000      92622.70      94151.40      -0.016237
      339.00000      92462.40      94151.40      -0.017939
      342.00000      94643.20      94151.40      0.005224
      345.00000      94165.50      94151.40      0.000150
      348.00000      93201.40      94151.40      -0.010090
      351.00000      92584.90      94151.40      -0.016638
      354.00000      89510.30      94151.40      -0.049294
      357.00000      88714.70      94151.40      -0.057744
      360.00000      84659.30      94151.40      -0.100817
       9     120       19.5900     36.2000      1.00000      0.00000
      0.00000      73124.70      79258.90      -0.077394
      3.00000      77509.50      79258.90      -0.022072
      6.00000      75823.40      79258.90      -0.043345
      9.00000      76470.60      79258.90      -0.035179
      12.00000      76231.90      79258.90      -0.038191
      15.00000      74482.10      79258.90      -0.060268
      18.00000      71000.20      79258.90      -0.104199
      21.00000      70128.80      79258.90      -0.115194
      24.00000      69832.80      79258.90      -0.118928
      27.00000      70894.50      79258.90      -0.105532
      30.00000      74020.80      79258.90      -0.066088
      33.00000      78573.90      79258.90      -0.008642
      36.00000      81559.10      79258.90      0.029022
      39.00000      84519.80      79258.90      0.066376
      42.00000      86470.10      79258.90      0.090984
      45.00000      88303.00      79258.90      0.114108
      48.00000      89214.70      79258.90      0.125612
      51.00000      87691.20      79258.90      0.106389
      54.00000      87093.80      79258.90      0.098852
      57.00000      86782.10      79258.90      0.094919
      60.00000      85754.00      79258.90      0.081948
      63.00000      85072.00      79258.90      0.073344
      66.00000      85418.40      79258.90      0.077714
      69.00000      83960.70      79258.90      0.059323
      72.00000      81394.80      79258.90      0.026949
      75.00000      80739.80      79258.90      0.018685
      78.00000      78528.30      79258.90      -0.009217
      81.00000      77248.60      79258.90      -0.025363
      84.00000      78181.10      79258.90      -0.013598
      87.00000      80209.70      79258.90      0.011996
      90.00000      79573.20      79258.90      0.003966
      93.00000      82011.10      79258.90      0.034724
      96.00000      83146.50      79258.90      0.049049
      99.00000      81226.10      79258.90      0.024820
      102.00000      80669.90      79258.90      0.017802
      105.00000      79194.70      79258.90      -0.000810
      108.00000      76179.90      79258.90      -0.038848
      111.00000      74111.70      79258.90      -0.064941
      114.00000      72980.10      79258.90      -0.079218
      117.00000      72399.70      79258.90      -0.086542
      120.00000      74108.20      79258.90      -0.064986
      123.00000      76829.80      79258.90      -0.030648
      126.00000      79344.80      79258.90      0.001083
      129.00000      82498.20      79258.90      0.040870
      132.00000      83270.30      79258.90      0.050611
      135.00000      83629.90      79258.90      0.055148
      138.00000      82585.80      79258.90      0.041975
      141.00000      82807.10      79258.90      0.044768
      144.00000      82564.10      79258.90      0.041702
      147.00000      80844.40      79258.90      0.020005
      150.00000      79300.20      79258.90      0.000522
      153.00000      77682.30      79258.90      -0.019892
      156.00000      75743.50      79258.90      -0.044353
      159.00000      75627.50      79258.90      -0.045817
      162.00000      76656.60      79258.90      -0.032832
      165.00000      76353.50      79258.90      -0.036656
      168.00000      76839.50      79258.90      -0.030525
      171.00000      77516.80      79258.90      -0.021980
      174.00000      74429.20      79258.90      -0.060935
      177.00000      79174.20      79258.90      -0.001069
      180.00000      73124.70      79258.90      -0.077394
      183.00000      79174.20      79258.90      -0.001069
      186.00000      74429.20      79258.90      -0.060935
      189.00000      77516.80      79258.90      -0.021980
      192.00000      76839.50      79258.90      -0.030525
      195.00000      76353.50      79258.90      -0.036656
      198.00000      76656.60      79258.90      -0.032832
      201.00000      75627.50      79258.90      -0.045817
      204.00000      75743.50      79258.90      -0.044353
      207.00000      77682.30      79258.90      -0.019892
      210.00000      79300.20      79258.90      0.000522
      213.00000      80844.40      79258.90      0.020005
      216.00000      82564.10      79258.90      0.041702
      219.00000      82807.10      79258.90      0.044768
      222.00000      82585.80      79258.90      0.041975
      225.00000      83629.90      79258.90      0.055148
      228.00000      83270.30      79258.90      0.050611
      231.00000      82498.20      79258.90      0.040870
      234.00000      79344.80      79258.90      0.001083
      237.00000      76829.80      79258.90      -0.030648
      240.00000      74108.20      79258.90      -0.064986
      243.00000      72399.70      79258.90      -0.086542
      246.00000      72980.10      79258.90      -0.079218
      249.00000      74111.70      79258.90      -0.064941
      252.00000      76179.90      79258.90      -0.038848
      255.00000      79194.70      79258.90      -0.000810
      258.00000      80669.90      79258.90      0.017802
      261.00000      81226.10      79258.90      0.024820
      264.00000      83146.50      79258.90      0.049049
      267.00000      82011.10      79258.90      0.034724
      270.00000      79573.20      79258.90      0.003966
      273.00000      80209.70      79258.90      0.011996
      276.00000      78181.10      79258.90      -0.013598
      279.00000      77248.60      79258.90      -0.025363
      282.00000      78528.30      79258.90      -0.009217
      285.00000      80739.80      79258.90      0.018685
      288.00000      81394.80      79258.90      0.026949
      291.00000      83960.70      79258.90      0.059323
      294.00000      85418.40      79258.90      0.077714
      297.00000      85072.00      79258.90      0.073344
      300.00000      85754.00      79258.90      0.081948
      303.00000      86782.10      79258.90      0.094919
      306.00000      87093.80      79258.90      0.098852
      309.00000      87691.20      79258.90      0.106389
      312.00000      89214.70      79258.90      0.125612
      315.00000      88303.00      79258.90      0.114108
      318.00000      86470.10      79258.90      0.090984
      321.00000      84519.80      79258.90      0.066376
      324.00000      81559.10      79258.90      0.029022
      327.00000      78573.90      79258.90      -0.008642
      330.00000      74020.80      79258.90      -0.066088
      333.00000      70894.50      79258.90      -0.105532
      336.00000      69832.80      79258.90      -0.118928
      339.00000      70128.80      79258.90      -0.115194
      342.00000      71000.20      79258.90      -0.104199
      345.00000      74482.10      79258.90      -0.060268
      348.00000      76231.90      79258.90      -0.038191
      351.00000      76470.60      79258.90      -0.035179
      354.00000      75823.40      79258.90      -0.043345
      357.00000      77509.50      79258.90      -0.022072
      360.00000      73124.70      79258.90      -0.077394
       10     120       19.5900     39.2000      1.00000      0.00000
      0.00000      68744.30      79875.00      -0.139351
      3.00000      69691.60      79875.00      -0.127491
      6.00000      71577.10      79875.00      -0.103886
      9.00000      73436.90      79875.00      -0.080602
      12.00000      75476.00      79875.00      -0.055073
      15.00000      72392.70      79875.00      -0.093675
      18.00000      71515.90      79875.00      -0.104652
      21.00000      72953.20      79875.00      -0.086658
      24.00000      72121.00      79875.00      -0.097077
      27.00000      75789.60      79875.00      -0.051147
      30.00000      78563.00      79875.00      -0.016427
      33.00000      81814.60      79875.00      0.024283
      36.00000      83112.70      79875.00      0.040534
      39.00000      87217.90      79875.00      0.091930
      42.00000      87918.40      79875.00      0.100700
      45.00000      91621.70      79875.00      0.147063
      48.00000      93618.80      79875.00      0.172066
      51.00000      94933.30      79875.00      0.188523
      54.00000      95314.90      79875.00      0.193301
      57.00000      95090.20      79875.00      0.190487
      60.00000      92456.80      79875.00      0.157518
      63.00000      91741.80      79875.00      0.148567
      66.00000      89637.50      79875.00      0.122222
      69.00000      86095.60      79875.00      0.077879
      72.00000      84047.20      79875.00      0.052235
      75.00000      83558.30      79875.00      0.046113
      78.00000      79695.60      79875.00      -0.002247
      81.00000      77950.50      79875.00      -0.024094
      84.00000      77938.90      79875.00      -0.024239
      87.00000      77899.00      79875.00      -0.024739
      90.00000      79146.50      79875.00      -0.009121
      93.00000      80660.60      79875.00      0.009836
      96.00000      80237.60      79875.00      0.004539
      99.00000      79693.90      79875.00      -0.002268
      102.00000      77697.20      79875.00      -0.027266
      105.00000      74017.90      79875.00      -0.073328
      108.00000      73250.40      79875.00      -0.082937
      111.00000      73301.50      79875.00      -0.082298
      114.00000      73317.20      79875.00      -0.082101
      117.00000      74276.50      79875.00      -0.070091
      120.00000      76293.50      79875.00      -0.044839
      123.00000      77591.60      79875.00      -0.028588
      126.00000      79478.90      79875.00      -0.004959
      129.00000      81026.50      79875.00      0.014417
      132.00000      82317.40      79875.00      0.030578
      135.00000      82402.90      79875.00      0.031648
      138.00000      83255.90      79875.00      0.042327
      141.00000      82712.10      79875.00      0.035519
      144.00000      83163.70      79875.00      0.041172
      147.00000      83311.40      79875.00      0.043022
      150.00000      82846.20      79875.00      0.037198
      153.00000      80769.10      79875.00      0.011193
      156.00000      79923.90      79875.00      0.000612
      159.00000      77922.50      79875.00      -0.024445
      162.00000      75385.70      79875.00      -0.056205
      165.00000      73577.00      79875.00      -0.078849
      168.00000      73301.30      79875.00      -0.082300
      171.00000      72838.00      79875.00      -0.088100
      174.00000      71318.20      79875.00      -0.107127
      177.00000      73541.30      79875.00      -0.079295
      180.00000      68744.30      79875.00      -0.139352
      183.00000      73541.30      79875.00      -0.079295
      186.00000      71318.20      79875.00      -0.107127
      189.00000      72838.00      79875.00      -0.088100
      192.00000      73301.30      79875.00      -0.082300
      195.00000      73577.00      79875.00      -0.078849
      198.00000      75385.70      79875.00      -0.056205
      201.00000      77922.50      79875.00      -0.024445
      204.00000      79923.90      79875.00      0.000612
      207.00000      80769.10      79875.00      0.011193
      210.00000      82846.20      79875.00      0.037198
      213.00000      83311.40      79875.00      0.043022
      216.00000      83163.70      79875.00      0.041172
      219.00000      82712.10      79875.00      0.035519
      222.00000      83255.90      79875.00      0.042327
      225.00000      82402.90      79875.00      0.031648
      228.00000      82317.40      79875.00      0.030578
      231.00000      81026.50      79875.00      0.014417
      234.00000      79478.90      79875.00      -0.004959
      237.00000      77591.60      79875.00      -0.028588
      240.00000      76293.50      79875.00      -0.044839
      243.00000      74276.50      79875.00      -0.070091
      246.00000      73317.20      79875.00      -0.082101
      249.00000      73301.50      79875.00      -0.082298
      252.00000      73250.40      79875.00      -0.082937
      255.00000      74017.90      79875.00      -0.073328
      258.00000      77697.20      79875.00      -0.027266
      261.00000      79693.90      79875.00      -0.002268
      264.00000      80237.60      79875.00      0.004539
      267.00000      80660.60      79875.00      0.009836
      270.00000      79146.50      79875.00      -0.009121
      273.00000      77899.00      79875.00      -0.024739
      276.00000      77938.90      79875.00      -0.024239
      279.00000      77950.50      79875.00      -0.024094
      282.00000      79695.60      79875.00      -0.002247
      285.00000      83558.30      79875.00      0.046113
      288.00000      84047.20      79875.00      0.052235
      291.00000      86095.60      79875.00      0.077879
      294.00000      89637.50      79875.00      0.122222
      297.00000      91741.80      79875.00      0.148567
      300.00000      92456.80      79875.00      0.157518
      303.00000      95090.20      79875.00      0.190487
      306.00000      95314.90      79875.00      0.193301
      309.00000      94933.30      79875.00      0.188523
      312.00000      93618.80      79875.00      0.172066
      315.00000      91621.70      79875.00      0.147063
      318.00000      87918.40      79875.00      0.100700
      321.00000      87217.90      79875.00      0.091930
      324.00000      83112.70      79875.00      0.040534
      327.00000      81814.60      79875.00      0.024283
      330.00000      78563.00      79875.00      -0.016427
      333.00000      75789.60      79875.00      -0.051147
      336.00000      72121.00      79875.00      -0.097077
      339.00000      72953.20      79875.00      -0.086658
      342.00000      71515.90      79875.00      -0.104652
      345.00000      72392.70      79875.00      -0.093675
      348.00000      75476.00      79875.00      -0.055073
      351.00000      73436.90      79875.00      -0.080602
      354.00000      71577.10      79875.00      -0.103886
      357.00000      69691.60      79875.00      -0.127491
      360.00000      68744.30      79875.00      -0.139351
       11     120       19.5900     42.2000      1.00000      0.00000
      0.00000      60807.90      73846.40      -0.176562
      3.00000      66413.90      73846.40      -0.100649
      6.00000      63678.90      73846.40      -0.137685
      9.00000      64197.20      73846.40      -0.130666
      12.00000      63076.60      73846.40      -0.145840
      15.00000      61836.80      73846.40      -0.162630
      18.00000      61521.20      73846.40      -0.166904
      21.00000      62514.40      73846.40      -0.153453
      24.00000      64832.50      73846.40      -0.122063
      27.00000      67958.10      73846.40      -0.079738
      30.00000      69800.40      73846.40      -0.054790
      33.00000      71728.00      73846.40      -0.028687
      36.00000      74903.00      73846.40      0.014309
      39.00000      78943.50      73846.40      0.069023
      42.00000      82244.40      73846.40      0.113722
      45.00000      85720.30      73846.40      0.160791
      48.00000      88683.90      73846.40      0.200923
      51.00000      92025.00      73846.40      0.246167
      54.00000      91623.80      73846.40      0.240734
      57.00000      89791.50      73846.40      0.215922
      60.00000      87583.80      73846.40      0.186027
      63.00000      85296.70      73846.40      0.155055
      66.00000      80607.50      73846.40      0.091557
      69.00000      78531.50      73846.40      0.063444
      72.00000      77259.90      73846.40      0.046224
      75.00000      77318.90      73846.40      0.047024
      78.00000      76363.70      73846.40      0.034089
      81.00000      75811.90      73846.40      0.026616
      84.00000      74449.20      73846.40      0.008162
      87.00000      73826.20      73846.40      -0.000273
      90.00000      74106.30      73846.40      0.003519
      93.00000      75324.20      73846.40      0.020012
      96.00000      75338.90      73846.40      0.020210
      99.00000      74624.30      73846.40      0.010533
      102.00000      72928.00      73846.40      -0.012437
      105.00000      70748.00      73846.40      -0.041958
      108.00000      68839.60      73846.40      -0.067800
      111.00000      67723.40      73846.40      -0.082916
      114.00000      68938.40      73846.40      -0.066462
      117.00000      70207.10      73846.40      -0.049281
      120.00000      71927.50      73846.40      -0.025985
      123.00000      72952.90      73846.40      -0.012100
      126.00000      75042.70      73846.40      0.016200
      129.00000      77343.00      73846.40      0.047350
      132.00000      80158.10      73846.40      0.085471
      135.00000      80673.60      73846.40      0.092452
      138.00000      82785.70      73846.40      0.121052
      141.00000      83739.30      73846.40      0.133966
      144.00000      82247.00      73846.40      0.113758
      147.00000      80682.90      73846.40      0.092577
      150.00000      78967.10      73846.40      0.069342
      153.00000      75474.90      73846.40      0.022053
      156.00000      72702.30      73846.40      -0.015493
      159.00000      69592.70      73846.40      -0.057602
      162.00000      66590.00      73846.40      -0.098263
      165.00000      63716.90      73846.40      -0.137170
      168.00000      62215.70      73846.40      -0.157498
      171.00000      61910.60      73846.40      -0.161630
      174.00000      61229.90      73846.40      -0.170848
      177.00000      62703.30      73846.40      -0.150896
      180.00000      60807.90      73846.40      -0.176563
      183.00000      62703.30      73846.40      -0.150896
      186.00000      61229.90      73846.40      -0.170848
      189.00000      61910.60      73846.40      -0.161630
      192.00000      62215.70      73846.40      -0.157498
      195.00000      63716.90      73846.40      -0.137170
      198.00000      66590.00      73846.40      -0.098263
      201.00000      69592.70      73846.40      -0.057602
      204.00000      72702.30      73846.40      -0.015493
      207.00000      75474.90      73846.40      0.022053
      210.00000      78967.10      73846.40      0.069342
      213.00000      80682.90      73846.40      0.092577
      216.00000      82247.00      73846.40      0.113758
      219.00000      83739.30      73846.40      0.133966
      222.00000      82785.70      73846.40      0.121052
      225.00000      80673.60      73846.40      0.092452
      228.00000      80158.10      73846.40      0.085471
      231.00000      77343.00      73846.40      0.047350
      234.00000      75042.70      73846.40      0.016200
      237.00000      72952.90      73846.40      -0.012100
      240.00000      71927.50      73846.40      -0.025985
      243.00000      70207.10      73846.40      -0.049281
      246.00000      68938.40      73846.40      -0.066462
      249.00000      67723.40      73846.40      -0.082916
      252.00000      68839.60      73846.40      -0.067800
      255.00000      70748.00      73846.40      -0.041958
      258.00000      72928.00      73846.40      -0.012437
      261.00000      74624.30      73846.40      0.010533
      264.00000      75338.90      73846.40      0.020210
      267.00000      75324.20      73846.40      0.020012
      270.00000      74106.30      73846.40      0.003519
      273.00000      73826.20      73846.40      -0.000273
      276.00000      74449.20      73846.40      0.008162
      279.00000      75811.90      73846.40      0.026616
      282.00000      76363.70      73846.40      0.034089
      285.00000      77318.90      73846.40      0.047024
      288.00000      77259.90      73846.40      0.046224
      291.00000      78531.50      73846.40      0.063444
      294.00000      80607.50      73846.40      0.091557
      297.00000      85296.70      73846.40      0.155055
      300.00000      87583.80      73846.40      0.186027
      303.00000      89791.50      73846.40      0.215922
      306.00000      91623.80      73846.40      0.240734
      309.00000      92025.00      73846.40      0.246167
      312.00000      88683.90      73846.40      0.200923
      315.00000      85720.30      73846.40      0.160791
      318.00000      82244.40      73846.40      0.113722
      321.00000      78943.50      73846.40      0.069023
      324.00000      74903.00      73846.40      0.014309
      327.00000      71728.00      73846.40      -0.028687
      330.00000      69800.40      73846.40      -0.054790
      333.00000      67958.10      73846.40      -0.079738
      336.00000      64832.50      73846.40      -0.122063
      339.00000      62514.40      73846.40      -0.153453
      342.00000      61521.20      73846.40      -0.166904
      345.00000      61836.80      73846.40      -0.162630
      348.00000      63076.60      73846.40      -0.145840
      351.00000      64197.20      73846.40      -0.130666
      354.00000      63678.90      73846.40      -0.137685
      357.00000      66413.90      73846.40      -0.100649
      360.00000      60807.90      73846.40      -0.176562
       12     120       19.5900     45.2000      1.00000      0.00000
      0.00000      58421.90      72734.50      -0.196779
      3.00000      64535.20      72734.50      -0.112730
      6.00000      65034.60      72734.50      -0.105864
      9.00000      66056.60      72734.50      -0.091813
      12.00000      66050.60      72734.50      -0.091896
      15.00000      65991.90      72734.50      -0.092702
      18.00000      67376.90      72734.50      -0.073660
      21.00000      67895.10      72734.50      -0.066535
      24.00000      69745.70      72734.50      -0.041093
      27.00000      69296.20      72734.50      -0.047272
      30.00000      70372.70      72734.50      -0.032473
      33.00000      70970.90      72734.50      -0.024248
      36.00000      72300.80      72734.50      -0.005963
      39.00000      74595.00      72734.50      0.025578
      42.00000      78671.20      72734.50      0.081621
      45.00000      82158.30      72734.50      0.129564
      48.00000      83690.70      72734.50      0.150633
      51.00000      85151.70      72734.50      0.170719
      54.00000      84962.40      72734.50      0.168116
      57.00000      83640.40      72734.50      0.149941
      60.00000      78429.00      72734.50      0.078291
      63.00000      78557.20      72734.50      0.080053
      66.00000      76418.00      72734.50      0.050642
      69.00000      75963.20      72734.50      0.044390
      72.00000      76908.40      72734.50      0.057384
      75.00000      80232.10      72734.50      0.103081
      78.00000      79359.10      72734.50      0.091078
      81.00000      80805.90      72734.50      0.110970
      84.00000      81419.10      72734.50      0.119401
      87.00000      80952.80      72734.50      0.112990
      90.00000      81314.40      72734.50      0.117961
      93.00000      80823.60      72734.50      0.111213
      96.00000      81328.90      72734.50      0.118161
      99.00000      77942.00      72734.50      0.071595
      102.00000      75210.10      72734.50      0.034035
      105.00000      73754.80      72734.50      0.014027
      108.00000      73778.20      72734.50      0.014348
      111.00000      71209.40      72734.50      -0.020968
      114.00000      71020.20      72734.50      -0.023570
      117.00000      71844.20      72734.50      -0.012240
      120.00000      69521.20      72734.50      -0.044179
      123.00000      68577.40      72734.50      -0.057155
      126.00000      69791.30      72734.50      -0.040466
      129.00000      71840.20      72734.50      -0.012297
      132.00000      71779.50      72734.50      -0.013131
      135.00000      74199.00      72734.50      0.020134
      138.00000      75248.10      72734.50      0.034558
      141.00000      75158.50      72734.50      0.033326
      144.00000      74180.00      72734.50      0.019873
      147.00000      73087.70      72734.50      0.004856
      150.00000      70179.40      72734.50      -0.035129
      153.00000      67219.10      72734.50      -0.075830
      156.00000      64412.50      72734.50      -0.114416
      159.00000      61599.50      72734.50      -0.153092
      162.00000      60583.50      72734.50      -0.167060
      165.00000      61769.00      72734.50      -0.150762
      168.00000      62550.20      72734.50      -0.140021
      171.00000      63577.40      72734.50      -0.125899
      174.00000      65407.10      72734.50      -0.100743
      177.00000      69203.20      72734.50      -0.048551
      180.00000      58421.90      72734.50      -0.196779
      183.00000      69203.20      72734.50      -0.048551
      186.00000      65407.10      72734.50      -0.100743
      189.00000      63577.40      72734.50      -0.125899
      192.00000      62550.20      72734.50      -0.140021
      195.00000      61769.00      72734.50      -0.150762
      198.00000      60583.50      72734.50      -0.167060
      201.00000      61599.50      72734.50      -0.153092
      204.00000      64412.50      72734.50      -0.114416
      207.00000      67219.10      72734.50      -0.075830
      210.00000      70179.40      72734.50      -0.035129
      213.00000      73087.70      72734.50      0.004856
      216.00000      74180.00      72734.50      0.019873
      219.00000      75158.50      72734.50      0.033326
      222.00000      75248.10      72734.50      0.034558
      225.00000      74199.00      72734.50      0.020134
      228.00000      71779.50      72734.50      -0.013131
      231.00000      71840.20      72734.50      -0.012297
      234.00000      69791.30      72734.50      -0.040466
      237.00000      68577.40      72734.50      -0.057155
      240.00000      69521.20      72734.50      -0.044179
      243.00000      71844.20      72734.50      -0.012240
      246.00000      71020.20      72734.50      -0.023570
      249.00000      71209.40      72734.50      -0.020968
      252.00000      73778.20      72734.50      0.014348
      255.00000      73754.80      72734.50      0.014027
      258.00000      75210.10      72734.50      0.034035
      261.00000      77942.00      72734.50      0.071595
      264.00000      81328.90      72734.50      0.118161
      267.00000      80823.60      72734.50      0.111213
      270.00000      81314.40      72734.50      0.117961
      273.00000      80952.80      72734.50      0.112990
      276.00000      81419.10      72734.50      0.119401
      279.00000      80805.90      72734.50      0.110970
      282.00000      79359.10      72734.50      0.091078
      285.00000      80232.10      72734.50      0.103081
      288.00000      76908.40      72734.50      0.057384
      291.00000      75963.20      72734.50      0.044390
      294.00000      76418.00      72734.50      0.050642
      297.00000      78557.20      72734.50      0.080053
      300.00000      78429.00      72734.50      0.078291
      303.00000      83640.40      72734.50      0.149941
      306.00000      84962.40      72734.50      0.168116
      309.00000      85151.70      72734.50      0.170719
      312.00000      83690.70      72734.50      0.150633
      315.00000      82158.30      72734.50      0.129564
      318.00000      78671.20      72734.50      0.081621
      321.00000      74595.00      72734.50      0.025578
      324.00000      72300.80      72734.50      -0.005963
      327.00000      70970.90      72734.50      -0.024248
      330.00000      70372.70      72734.50      -0.032473
      333.00000      69296.20      72734.50      -0.047272
      336.00000      69745.70      72734.50      -0.041093
      339.00000      67895.10      72734.50      -0.066535
      342.00000      67376.90      72734.50      -0.073660
      345.00000      65991.90      72734.50      -0.092702
      348.00000      66050.60      72734.50      -0.091896
      351.00000      66056.60      72734.50      -0.091813
      354.00000      65034.60      72734.50      -0.105864
      357.00000      64535.20      72734.50      -0.112730
      360.00000      58421.90      72734.50      -0.196779
       13     120       19.5900     48.2000      1.00000      0.00000
      0.00000      62273.20      69678.30      -0.106276
      3.00000      62931.60      69678.30      -0.096826
      6.00000      66929.20      69678.30      -0.039455
      9.00000      67857.50      69678.30      -0.026131
      12.00000      68631.20      69678.30      -0.015028
      15.00000      68510.00      69678.30      -0.016767
      18.00000      67079.70      69678.30      -0.037294
      21.00000      66228.50      69678.30      -0.049510
      24.00000      67434.40      69678.30      -0.032204
      27.00000      67468.40      69678.30      -0.031715
      30.00000      66490.50      69678.30      -0.045750
      33.00000      66619.80      69678.30      -0.043894
      36.00000      67778.80      69678.30      -0.027261
      39.00000      66572.30      69678.30      -0.044576
      42.00000      67913.30      69678.30      -0.025330
      45.00000      71579.50      69678.30      0.027286
      48.00000      71416.30      69678.30      0.024944
      51.00000      70649.50      69678.30      0.013939
      54.00000      72579.40      69678.30      0.041636
      57.00000      73825.60      69678.30      0.059521
      60.00000      72089.60      69678.30      0.034606
      63.00000      73580.00      69678.30      0.055997
      66.00000      72800.30      69678.30      0.044806
      69.00000      71964.00      69678.30      0.032804
      72.00000      70501.80      69678.30      0.011818
      75.00000      71119.90      69678.30      0.020689
      78.00000      70566.80      69678.30      0.012752
      81.00000      73402.50      69678.30      0.053449
      84.00000      75650.70      69678.30      0.085714
      87.00000      78254.90      69678.30      0.123089
      90.00000      81758.60      69678.30      0.173373
      93.00000      86190.90      69678.30      0.236984
      96.00000      86701.00      69678.30      0.244305
      99.00000      84918.10      69678.30      0.218717
      102.00000      82370.20      69678.30      0.182151
      105.00000      78406.60      69678.30      0.125266
      108.00000      74049.20      69678.30      0.062730
      111.00000      70807.10      69678.30      0.016200
      114.00000      69075.50      69678.30      -0.008650
      117.00000      68643.80      69678.30      -0.014847
      120.00000      67090.00      69678.30      -0.037146
      123.00000      65493.40      69678.30      -0.060060
      126.00000      65608.50      69678.30      -0.058408
      129.00000      66762.70      69678.30      -0.041843
      132.00000      66232.50      69678.30      -0.049453
      135.00000      65393.30      69678.30      -0.061497
      138.00000      65125.20      69678.30      -0.065344
      141.00000      65355.40      69678.30      -0.062041
      144.00000      63872.50      69678.30      -0.083322
      147.00000      63141.40      69678.30      -0.093815
      150.00000      62899.60      69678.30      -0.097286
      153.00000      64161.90      69678.30      -0.079169
      156.00000      62561.10      69678.30      -0.102143
      159.00000      62491.30      69678.30      -0.103145
      162.00000      63585.90      69678.30      -0.087437
      165.00000      65148.90      69678.30      -0.065004
      168.00000      66113.60      69678.30      -0.051159
      171.00000      67715.80      69678.30      -0.028166
      174.00000      69055.90      69678.30      -0.008933
      177.00000      69267.90      69678.30      -0.005890
      180.00000      62273.10      69678.30      -0.106276
      183.00000      69267.90      69678.30      -0.005890
      186.00000      69055.90      69678.30      -0.008933
      189.00000      67715.80      69678.30      -0.028166
      192.00000      66113.60      69678.30      -0.051159
      195.00000      65148.90      69678.30      -0.065004
      198.00000      63585.90      69678.30      -0.087437
      201.00000      62491.30      69678.30      -0.103145
      204.00000      62561.10      69678.30      -0.102143
      207.00000      64161.90      69678.30      -0.079169
      210.00000      62899.60      69678.30      -0.097286
      213.00000      63141.40      69678.30      -0.093815
      216.00000      63872.50      69678.30      -0.083322
      219.00000      65355.40      69678.30      -0.062041
      222.00000      65125.20      69678.30      -0.065344
      225.00000      65393.30      69678.30      -0.061497
      228.00000      66232.50      69678.30      -0.049453
      231.00000      66762.70      69678.30      -0.041843
      234.00000      65608.50      69678.30      -0.058408
      237.00000      65493.40      69678.30      -0.060060
      240.00000      67090.00      69678.30      -0.037146
      243.00000      68643.80      69678.30      -0.014847
      246.00000      69075.50      69678.30      -0.008650
      249.00000      70807.10      69678.30      0.016200
      252.00000      74049.20      69678.30      0.062730
      255.00000      78406.60      69678.30      0.125266
      258.00000      82370.20      69678.30      0.182151
      261.00000      84918.10      69678.30      0.218717
      264.00000      86701.00      69678.30      0.244305
      267.00000      86190.90      69678.30      0.236984
      270.00000      81758.60      69678.30      0.173373
      273.00000      78254.90      69678.30      0.123089
      276.00000      75650.70      69678.30      0.085714
      279.00000      73402.50      69678.30      0.053449
      282.00000      70566.80      69678.30      0.012752
      285.00000      71119.90      69678.30      0.020689
      288.00000      70501.80      69678.30      0.011818
      291.00000      71964.00      69678.30      0.032804
      294.00000      72800.30      69678.30      0.044806
      297.00000      73580.00      69678.30      0.055997
      300.00000      72089.60      69678.30      0.034606
      303.00000      73825.60      69678.30      0.059521
      306.00000      72579.40      69678.30      0.041636
      309.00000      70649.50      69678.30      0.013939
      312.00000      71416.30      69678.30      0.024944
      315.00000      71579.50      69678.30      0.027286
      318.00000      67913.30      69678.30      -0.025330
      321.00000      66572.30      69678.30      -0.044576
      324.00000      67778.80      69678.30      -0.027261
      327.00000      66619.80      69678.30      -0.043894
      330.00000      66490.50      69678.30      -0.045750
      333.00000      67468.40      69678.30      -0.031715
      336.00000      67434.40      69678.30      -0.032204
      339.00000      66228.50      69678.30      -0.049510
      342.00000      67079.70      69678.30      -0.037294
      345.00000      68510.00      69678.30      -0.016767
      348.00000      68631.20      69678.30      -0.015028
      351.00000      67857.50      69678.30      -0.026131
      354.00000      66929.20      69678.30      -0.039455
      357.00000      62931.60      69678.30      -0.096826
      360.00000      62273.20      69678.30      -0.106276
       14     120       19.5900     51.2000      1.00000      0.00000
      0.00000      53648.90      60328.10      -0.110715
      3.00000      61955.80      60328.10      0.026981
      6.00000      61637.70      60328.10      0.021708
      9.00000      62184.40      60328.10      0.030770
      12.00000      61389.90      60328.10      0.017600
      15.00000      59105.50      60328.10      -0.020265
      18.00000      55641.40      60328.10      -0.077686
      21.00000      54282.10      60328.10      -0.100219
      24.00000      53290.50      60328.10      -0.116655
      27.00000      54363.70      60328.10      -0.098866
      30.00000      54041.40      60328.10      -0.104209
      33.00000      54337.20      60328.10      -0.099305
      36.00000      55949.10      60328.10      -0.072586
      39.00000      58841.10      60328.10      -0.024649
      42.00000      57869.60      60328.10      -0.040752
      45.00000      58454.00      60328.10      -0.031064
      48.00000      59027.60      60328.10      -0.021557
      51.00000      59071.90      60328.10      -0.020822
      54.00000      58750.50      60328.10      -0.026150
      57.00000      60600.70      60328.10      0.004519
      60.00000      61532.60      60328.10      0.019967
      63.00000      64515.10      60328.10      0.069404
      66.00000      65108.70      60328.10      0.079244
      69.00000      63957.20      60328.10      0.060156
      72.00000      64314.40      60328.10      0.066077
      75.00000      64316.10      60328.10      0.066105
      78.00000      63093.80      60328.10      0.045845
      81.00000      62751.80      60328.10      0.040176
      84.00000      66211.70      60328.10      0.097527
      87.00000      66913.90      60328.10      0.109167
      90.00000      71521.30      60328.10      0.185539
      93.00000      76410.30      60328.10      0.266580
      96.00000      83013.90      60328.10      0.376042
      99.00000      82090.30      60328.10      0.360732
      102.00000      80239.20      60328.10      0.330047
      105.00000      77475.30      60328.10      0.284233
      108.00000      70645.00      60328.10      0.171013
      111.00000      61600.40      60328.10      0.021091
      114.00000      58978.80      60328.10      -0.022366
      117.00000      60078.10      60328.10      -0.004144
      120.00000      57671.70      60328.10      -0.044032
      123.00000      58252.00      60328.10      -0.034413
      126.00000      59404.00      60328.10      -0.015318
      129.00000      57528.40      60328.10      -0.046408
      132.00000      55157.50      60328.10      -0.085708
      135.00000      53774.90      60328.10      -0.108626
      138.00000      52766.20      60328.10      -0.125345
      141.00000      51714.10      60328.10      -0.142786
      144.00000      53591.80      60328.10      -0.111661
      147.00000      52859.00      60328.10      -0.123808
      150.00000      52776.30      60328.10      -0.125178
      153.00000      53177.30      60328.10      -0.118531
      156.00000      53886.70      60328.10      -0.106772
      159.00000      53216.10      60328.10      -0.117889
      162.00000      52761.60      60328.10      -0.125421
      165.00000      53190.40      60328.10      -0.118314
      168.00000      54240.50      60328.10      -0.100907
      171.00000      55811.70      60328.10      -0.074864
      174.00000      58833.40      60328.10      -0.024776
      177.00000      59860.30      60328.10      -0.007754
      180.00000      53648.80      60328.10      -0.110716
      183.00000      59860.30      60328.10      -0.007754
      186.00000      58833.40      60328.10      -0.024776
      189.00000      55811.70      60328.10      -0.074864
      192.00000      54240.50      60328.10      -0.100907
      195.00000      53190.40      60328.10      -0.118314
      198.00000      52761.60      60328.10      -0.125421
      201.00000      53216.10      60328.10      -0.117889
      204.00000      53886.70      60328.10      -0.106772
      207.00000      53177.30      60328.10      -0.118531
      210.00000      52776.30      60328.10      -0.125178
      213.00000      52859.00      60328.10      -0.123808
      216.00000      53591.80      60328.10      -0.111661
      219.00000      51714.10      60328.10      -0.142786
      222.00000      52766.20      60328.10      -0.125345
      225.00000      53774.90      60328.10      -0.108626
      228.00000      55157.50      60328.10      -0.085708
      231.00000      57528.40      60328.10      -0.046408
      234.00000      59404.00      60328.10      -0.015318
      237.00000      58252.00      60328.10      -0.034413
      240.00000      57671.70      60328.10      -0.044032
      243.00000      60078.10      60328.10      -0.004144
      246.00000      58978.80      60328.10      -0.022366
      249.00000      61600.40      60328.10      0.021091
      252.00000      70645.00      60328.10      0.171013
      255.00000      77475.30      60328.10      0.284233
      258.00000      80239.20      60328.10      0.330047
      261.00000      82090.30      60328.10      0.360732
      264.00000      83013.90      60328.10      0.376042
      267.00000      76410.30      60328.10      0.266580
      270.00000      71521.30      60328.10      0.185539
      273.00000      66913.90      60328.10      0.109167
      276.00000      66211.70      60328.10      0.097527
      279.00000      62751.80      60328.10      0.040176
      282.00000      63093.80      60328.10      0.045845
      285.00000      64316.10      60328.10      0.066105
      288.00000      64314.40      60328.10      0.066077
      291.00000      63957.20      60328.10      0.060156
      294.00000      65108.70      60328.10      0.079244
      297.00000      64515.10      60328.10      0.069404
      300.00000      61532.60      60328.10      0.019967
      303.00000      60600.70      60328.10      0.004519
      306.00000      58750.50      60328.10      -0.026150
      309.00000      59071.90      60328.10      -0.020822
      312.00000      59027.60      60328.10      -0.021557
      315.00000      58454.00      60328.10      -0.031064
      318.00000      57869.60      60328.10      -0.040752
      321.00000      58841.10      60328.10      -0.024649
      324.00000      55949.10      60328.10      -0.072586
      327.00000      54337.20      60328.10      -0.099305
      330.00000      54041.40      60328.10      -0.104209
      333.00000      54363.70      60328.10      -0.098866
      336.00000      53290.50      60328.10      -0.116655
      339.00000      54282.10      60328.10      -0.100219
      342.00000      55641.40      60328.10      -0.077686
      345.00000      59105.50      60328.10      -0.020265
      348.00000      61389.90      60328.10      0.017600
      351.00000      62184.40      60328.10      0.030770
      354.00000      61637.70      60328.10      0.021708
      357.00000      61955.80      60328.10      0.026981
      360.00000      53648.90      60328.10      -0.110715
       15     120       19.5900     54.2000      1.00000      0.00000
      0.00000      50526.30      53642.50      -0.058092
      3.00000      55343.60      53642.50      0.031713
      6.00000      55258.90      53642.50      0.030133
      9.00000      55717.20      53642.50      0.038677
      12.00000      53547.20      53642.50      -0.001776
      15.00000      52152.10      53642.50      -0.027785
      18.00000      50716.00      53642.50      -0.054556
      21.00000      47703.00      53642.50      -0.110724
      24.00000      46078.50      53642.50      -0.141007
      27.00000      46355.80      53642.50      -0.135839
      30.00000      45385.60      53642.50      -0.153925
      33.00000      44790.10      53642.50      -0.165026
      36.00000      47510.70      53642.50      -0.114308
      39.00000      50277.90      53642.50      -0.062723
      42.00000      50539.40      53642.50      -0.057847
      45.00000      52687.30      53642.50      -0.017806
      48.00000      54446.60      53642.50      0.014990
      51.00000      55682.20      53642.50      0.038025
      54.00000      55216.70      53642.50      0.029346
      57.00000      55722.10      53642.50      0.038767
      60.00000      56376.80      53642.50      0.050973
      63.00000      57065.20      53642.50      0.063806
      66.00000      55409.90      53642.50      0.032948
      69.00000      56945.40      53642.50      0.061573
      72.00000      56738.90      53642.50      0.057723
      75.00000      55503.80      53642.50      0.034699
      78.00000      54047.80      53642.50      0.007556
      81.00000      55008.10      53642.50      0.025458
      84.00000      57381.30      53642.50      0.069699
      87.00000      61191.50      53642.50      0.140728
      90.00000      64603.90      53642.50      0.204342
      93.00000      69684.70      53642.50      0.299058
      96.00000      70947.20      53642.50      0.322593
      99.00000      70464.70      53642.50      0.313598
      102.00000      67170.00      53642.50      0.252178
      105.00000      63879.30      53642.50      0.190834
      108.00000      59788.20      53642.50      0.114569
      111.00000      56748.80      53642.50      0.057908
      114.00000      54356.20      53642.50      0.013304
      117.00000      52558.70      53642.50      -0.020203
      120.00000      50583.80      53642.50      -0.057021
      123.00000      49732.40      53642.50      -0.072892
      126.00000      49673.00      53642.50      -0.074000
      129.00000      48437.30      53642.50      -0.097034
      132.00000      48970.00      53642.50      -0.087104
      135.00000      51156.80      53642.50      -0.046338
      138.00000      51180.30      53642.50      -0.045901
      141.00000      52019.80      53642.50      -0.030250
      144.00000      52261.90      53642.50      -0.025737
      147.00000      51218.50      53642.50      -0.045187
      150.00000      49689.00      53642.50      -0.073700
      153.00000      49831.70      53642.50      -0.071040
      156.00000      49291.90      53642.50      -0.081104
      159.00000      47445.60      53642.50      -0.115522
      162.00000      46903.20      53642.50      -0.125633
      165.00000      47437.90      53642.50      -0.115666
      168.00000      48922.30      53642.50      -0.087993
      171.00000      48418.50      53642.50      -0.097385
      174.00000      55112.70      53642.50      0.027407
      177.00000      48735.10      53642.50      -0.091483
      180.00000      50526.30      53642.50      -0.058093
      183.00000      48735.10      53642.50      -0.091483
      186.00000      55112.70      53642.50      0.027407
      189.00000      48418.50      53642.50      -0.097385
      192.00000      48922.30      53642.50      -0.087993
      195.00000      47437.90      53642.50      -0.115666
      198.00000      46903.20      53642.50      -0.125633
      201.00000      47445.60      53642.50      -0.115522
      204.00000      49291.90      53642.50      -0.081104
      207.00000      49831.70      53642.50      -0.071040
      210.00000      49689.00      53642.50      -0.073700
      213.00000      51218.50      53642.50      -0.045187
      216.00000      52261.90      53642.50      -0.025737
      219.00000      52019.80      53642.50      -0.030250
      222.00000      51180.30      53642.50      -0.045901
      225.00000      51156.80      53642.50      -0.046338
      228.00000      48970.00      53642.50      -0.087104
      231.00000      48437.30      53642.50      -0.097034
      234.00000      49673.00      53642.50      -0.074000
      237.00000      49732.40      53642.50      -0.072892
      240.00000      50583.80      53642.50      -0.057021
      243.00000      52558.70      53642.50      -0.020203
      246.00000      54356.20      53642.50      0.013304
      249.00000      56748.80      53642.50      0.057908
      252.00000      59788.20      53642.50      0.114569
      255.00000      63879.30      53642.50      0.190834
      258.00000      67170.00      53642.50      0.252178
      261.00000      70464.70      53642.50      0.313598
      264.00000      70947.20      53642.50      0.322593
      267.00000      69684.70      53642.50      0.299058
      270.00000      64603.90      53642.50      0.204342
      273.00000      61191.50      53642.50      0.140728
      276.00000      57381.30      53642.50      0.069699
      279.00000      55008.10      53642.50      0.025458
      282.00000      54047.80      53642.50      0.007556
      285.00000      55503.80      53642.50      0.034699
      288.00000      56738.90      53642.50      0.057723
      291.00000      56945.40      53642.50      0.061573
      294.00000      55409.90      53642.50      0.032948
      297.00000      57065.20      53642.50      0.063806
      300.00000      56376.80      53642.50      0.050973
      303.00000      55722.10      53642.50      0.038767
      306.00000      55216.70      53642.50      0.029346
      309.00000      55682.20      53642.50      0.038025
      312.00000      54446.60      53642.50      0.014990
      315.00000      52687.30      53642.50      -0.017806
      318.00000      50539.40      53642.50      -0.057847
      321.00000      50277.90      53642.50      -0.062723
      324.00000      47510.70      53642.50      -0.114308
      327.00000      44790.10      53642.50      -0.165026
      330.00000      45385.60      53642.50      -0.153925
      333.00000      46355.80      53642.50      -0.135839
      336.00000      46078.50      53642.50      -0.141007
      339.00000      47703.00      53642.50      -0.110724
      342.00000      50716.00      53642.50      -0.054556
      345.00000      52152.10      53642.50      -0.027785
      348.00000      53547.20      53642.50      -0.001776
      351.00000      55717.20      53642.50      0.038677
      354.00000      55258.90      53642.50      0.030133
      357.00000      55343.60      53642.50      0.031713
      360.00000      50526.30      53642.50      -0.058092
       16     120       19.5900     57.2000      1.00000      0.00000
      0.00000      41171.10      45588.40      -0.096896
      3.00000      42251.90      45588.40      -0.073188
      6.00000      43605.00      45588.40      -0.043507
      9.00000      44092.50      45588.40      -0.032813
      12.00000      43993.60      45588.40      -0.034984
      15.00000      43684.80      45588.40      -0.041757
      18.00000      42451.70      45588.40      -0.068805
      21.00000      41350.00      45588.40      -0.092972
      24.00000      40931.70      45588.40      -0.102146
      27.00000      40760.40      45588.40      -0.105905
      30.00000      40375.40      45588.40      -0.114350
      33.00000      40393.10      45588.40      -0.113961
      36.00000      41565.90      45588.40      -0.088236
      39.00000      42633.10      45588.40      -0.064827
      42.00000      44222.40      45588.40      -0.029965
      45.00000      46803.50      45588.40      0.026654
      48.00000      49157.70      45588.40      0.078293
      51.00000      50560.00      45588.40      0.109054
      54.00000      51058.30      45588.40      0.119984
      57.00000      51537.20      45588.40      0.130489
      60.00000      49987.30      45588.40      0.096491
      63.00000      47738.20      45588.40      0.047155
      66.00000      47242.00      45588.40      0.036272
      69.00000      48205.90      45588.40      0.057416
      72.00000      47975.80      45588.40      0.052368
      75.00000      48926.60      45588.40      0.073224
      78.00000      50467.50      45588.40      0.107023
      81.00000      51636.00      45588.40      0.132656
      84.00000      51779.20      45588.40      0.135798
      87.00000      50615.60      45588.40      0.110273
      90.00000      51417.20      45588.40      0.127857
      93.00000      53255.50      45588.40      0.168179
      96.00000      52327.20      45588.40      0.147817
      99.00000      50729.10      45588.40      0.112762
      102.00000      51277.60      45588.40      0.124794
      105.00000      51033.20      45588.40      0.119434
      108.00000      47773.90      45588.40      0.047938
      111.00000      46203.60      45588.40      0.013494
      114.00000      45604.50      45588.40      0.000353
      117.00000      45234.00      45588.40      -0.007775
      120.00000      42983.80      45588.40      -0.057133
      123.00000      43255.80      45588.40      -0.051167
      126.00000      43859.40      45588.40      -0.037928
      129.00000      44430.30      45588.40      -0.025403
      132.00000      44704.70      45588.40      -0.019384
      135.00000      45904.70      45588.40      0.006937
      138.00000      46967.30      45588.40      0.030247
      141.00000      46871.60      45588.40      0.028148
      144.00000      45469.60      45588.40      -0.002606
      147.00000      43546.90      45588.40      -0.044782
      150.00000      39786.60      45588.40      -0.127266
      153.00000      38152.80      45588.40      -0.163104
      156.00000      37291.00      45588.40      -0.182008
      159.00000      38146.40      45588.40      -0.163243
      162.00000      38854.20      45588.40      -0.147718
      165.00000      42114.50      45588.40      -0.076203
      168.00000      42905.50      45588.40      -0.058852
      171.00000      44650.90      45588.40      -0.020565
      174.00000      44478.50      45588.40      -0.024347
      177.00000      48901.90      45588.40      0.072683
      180.00000      41171.10      45588.40      -0.096896
      183.00000      48901.90      45588.40      0.072683
      186.00000      44478.50      45588.40      -0.024347
      189.00000      44650.90      45588.40      -0.020565
      192.00000      42905.50      45588.40      -0.058852
      195.00000      42114.50      45588.40      -0.076203
      198.00000      38854.20      45588.40      -0.147718
      201.00000      38146.40      45588.40      -0.163243
      204.00000      37291.00      45588.40      -0.182008
      207.00000      38152.80      45588.40      -0.163104
      210.00000      39786.60      45588.40      -0.127266
      213.00000      43546.90      45588.40      -0.044782
      216.00000      45469.60      45588.40      -0.002606
      219.00000      46871.60      45588.40      0.028148
      222.00000      46967.30      45588.40      0.030247
      225.00000      45904.70      45588.40      0.006937
      228.00000      44704.70      45588.40      -0.019384
      231.00000      44430.30      45588.40      -0.025403
      234.00000      43859.40      45588.40      -0.037928
      237.00000      43255.80      45588.40      -0.051167
      240.00000      42983.80      45588.40      -0.057133
      243.00000      45234.00      45588.40      -0.007775
      246.00000      45604.50      45588.40      0.000353
      249.00000      46203.60      45588.40      0.013494
      252.00000      47773.90      45588.40      0.047938
      255.00000      51033.20      45588.40      0.119434
      258.00000      51277.60      45588.40      0.124794
      261.00000      50729.10      45588.40      0.112762
      264.00000      52327.20      45588.40      0.147817
      267.00000      53255.50      45588.40      0.168179
      270.00000      51417.20      45588.40      0.127857
      273.00000      50615.60      45588.40      0.110273
      276.00000      51779.20      45588.40      0.135798
      279.00000      51636.00      45588.40      0.132656
      282.00000      50467.50      45588.40      0.107023
      285.00000      48926.60      45588.40      0.073224
      288.00000      47975.80      45588.40      0.052368
      291.00000      48205.90      45588.40      0.057416
      294.00000      47242.00      45588.40      0.036272
      297.00000      47738.20      45588.40      0.047155
      300.00000      49987.30      45588.40      0.096491
      303.00000      51537.20      45588.40      0.130489
      306.00000      51058.30      45588.40      0.119984
      309.00000      50560.00      45588.40      0.109054
      312.00000      49157.70      45588.40      0.078293
      315.00000      46803.50      45588.40      0.026654
      318.00000      44222.40      45588.40      -0.029965
      321.00000      42633.10      45588.40      -0.064827
      324.00000      41565.90      45588.40      -0.088236
      327.00000      40393.10      45588.40      -0.113961
      330.00000      40375.40      45588.40      -0.114350
      333.00000      40760.40      45588.40      -0.105905
      336.00000      40931.70      45588.40      -0.102146
      339.00000      41350.00      45588.40      -0.092972
      342.00000      42451.70      45588.40      -0.068805
      345.00000      43684.80      45588.40      -0.041757
      348.00000      43993.60      45588.40      -0.034984
      351.00000      44092.50      45588.40      -0.032813
      354.00000      43605.00      45588.40      -0.043507
      357.00000      42251.90      45588.40      -0.073188
      360.00000      41171.10      45588.40      -0.096896
       17     120       19.5900     60.2000      1.00000      0.00000
      0.00000      35834.20      42388.40      -0.154622
      3.00000      35627.90      42388.40      -0.159490
      6.00000      35198.30      42388.40      -0.169623
      9.00000      35191.50      42388.40      -0.169785
      12.00000      35866.10      42388.40      -0.153869
      15.00000      37732.10      42388.40      -0.109848
      18.00000      37797.10      42388.40      -0.108313
      21.00000      38870.60      42388.40      -0.082989
      24.00000      39192.40      42388.40      -0.075397
      27.00000      40140.10      42388.40      -0.053040
      30.00000      39044.00      42388.40      -0.078899
      33.00000      39347.10      42388.40      -0.071749
      36.00000      39986.30      42388.40      -0.056668
      39.00000      41566.80      42388.40      -0.019383
      42.00000      42857.90      42388.40      0.011078
      45.00000      44680.70      42388.40      0.054078
      48.00000      47515.60      42388.40      0.120958
      51.00000      48714.70      42388.40      0.149247
      54.00000      50270.40      42388.40      0.185949
      57.00000      49487.10      42388.40      0.167469
      60.00000      48816.10      42388.40      0.151638
      63.00000      47851.90      42388.40      0.128892
      66.00000      47341.90      42388.40      0.116861
      69.00000      45552.70      42388.40      0.074652
      72.00000      45182.50      42388.40      0.065918
      75.00000      46068.90      42388.40      0.086829
      78.00000      47446.00      42388.40      0.119316
      81.00000      46479.50      42388.40      0.096516
      84.00000      46691.50      42388.40      0.101518
      87.00000      48523.10      42388.40      0.144727
      90.00000      49143.20      42388.40      0.159355
      93.00000      47665.10      42388.40      0.124486
      96.00000      47907.50      42388.40      0.130205
      99.00000      49737.90      42388.40      0.173386
      102.00000      49325.10      42388.40      0.163648
      105.00000      48481.50      42388.40      0.143746
      108.00000      47786.40      42388.40      0.127346
      111.00000      46587.90      42388.40      0.099074
      114.00000      44630.20      42388.40      0.052889
      117.00000      43029.70      42388.40      0.015129
      120.00000      41381.00      42388.40      -0.023766
      123.00000      40577.10      42388.40      -0.042731
      126.00000      40224.80      42388.40      -0.051043
      129.00000      40225.60      42388.40      -0.051023
      132.00000      39777.60      42388.40      -0.061591
      135.00000      40541.20      42388.40      -0.043577
      138.00000      41180.00      42388.40      -0.028507
      141.00000      41539.30      42388.40      -0.020030
      144.00000      41748.90      42388.40      -0.015087
      147.00000      39847.50      42388.40      -0.059943
      150.00000      37178.90      42388.40      -0.122899
      153.00000      35864.00      42388.40      -0.153920
      156.00000      35128.80      42388.40      -0.171262
      159.00000      34203.50      42388.40      -0.193092
      162.00000      35696.90      42388.40      -0.157860
      165.00000      37512.00      42388.40      -0.115041
      168.00000      39111.30      42388.40      -0.077311
      171.00000      40148.00      42388.40      -0.052852
      174.00000      41680.70      42388.40      -0.016695
      177.00000      40565.60      42388.40      -0.043002
      180.00000      35834.20      42388.40      -0.154622
      183.00000      40565.60      42388.40      -0.043002
      186.00000      41680.70      42388.40      -0.016695
      189.00000      40148.00      42388.40      -0.052852
      192.00000      39111.30      42388.40      -0.077311
      195.00000      37512.00      42388.40      -0.115041
      198.00000      35696.90      42388.40      -0.157860
      201.00000      34203.50      42388.40      -0.193092
      204.00000      35128.80      42388.40      -0.171262
      207.00000      35864.00      42388.40      -0.153920
      210.00000      37178.90      42388.40      -0.122899
      213.00000      39847.50      42388.40      -0.059943
      216.00000      41748.90      42388.40      -0.015087
      219.00000      41539.30      42388.40      -0.020030
      222.00000      41180.00      42388.40      -0.028507
      225.00000      40541.20      42388.40      -0.043577
      228.00000      39777.60      42388.40      -0.061591
      231.00000      40225.60      42388.40      -0.051023
      234.00000      40224.80      42388.40      -0.051043
      237.00000      40577.10      42388.40      -0.042731
      240.00000      41381.00      42388.40      -0.023766
      243.00000      43029.70      42388.40      0.015129
      246.00000      44630.20      42388.40      0.052889
      249.00000      46587.90      42388.40      0.099074
      252.00000      47786.40      42388.40      0.127346
      255.00000      48481.50      42388.40      0.143746
      258.00000      49325.10      42388.40      0.163648
      261.00000      49737.90      42388.40      0.173386
      264.00000      47907.50      42388.40      0.130205
      267.00000      47665.10      42388.40      0.124486
      270.00000      49143.20      42388.40      0.159355
      273.00000      48523.10      42388.40      0.144727
      276.00000      46691.50      42388.40      0.101518
      279.00000      46479.50      42388.40      0.096516
      282.00000      47446.00      42388.40      0.119316
      285.00000      46068.90      42388.40      0.086829
      288.00000      45182.50      42388.40      0.065918
      291.00000      45552.70      42388.40      0.074652
      294.00000      47341.90      42388.40      0.116861
      297.00000      47851.90      42388.40      0.128892
      300.00000      48816.10      42388.40      0.151638
      303.00000      49487.10      42388.40      0.167469
      306.00000      50270.40      42388.40      0.185949
      309.00000      48714.70      42388.40      0.149247
      312.00000      47515.60      42388.40      0.120958
      315.00000      44680.70      42388.40      0.054078
      318.00000      42857.90      42388.40      0.011078
      321.00000      41566.80      42388.40      -0.019383
      324.00000      39986.30      42388.40      -0.056668
      327.00000      39347.10      42388.40      -0.071749
      330.00000      39044.00      42388.40      -0.078899
      333.00000      40140.10      42388.40      -0.053040
      336.00000      39192.40      42388.40      -0.075397
      339.00000      38870.60      42388.40      -0.082989
      342.00000      37797.10      42388.40      -0.108313
      345.00000      37732.10      42388.40      -0.109848
      348.00000      35866.10      42388.40      -0.153869
      351.00000      35191.50      42388.40      -0.169785
      354.00000      35198.30      42388.40      -0.169623
      357.00000      35627.90      42388.40      -0.159490
      360.00000      35834.20      42388.40      -0.154622
       18     120       19.5900     63.2000      1.00000      0.00000
      0.00000      29464.40      38169.70      -0.228070
      3.00000      29340.30      38169.70      -0.231320
      6.00000      30078.90      38169.70      -0.211970
      9.00000      30164.90      38169.70      -0.209716
      12.00000      31073.60      38169.70      -0.185909
      15.00000      31213.30      38169.70      -0.182248
      18.00000      32794.10      38169.70      -0.140835
      21.00000      33965.40      38169.70      -0.110148
      24.00000      35963.20      38169.70      -0.057808
      27.00000      36612.00      38169.70      -0.040811
      30.00000      37011.40      38169.70      -0.030345
      33.00000      37288.50      38169.70      -0.023087
      36.00000      37152.20      38169.70      -0.026656
      39.00000      37472.10      38169.70      -0.018275
      42.00000      38010.40      38169.70      -0.004174
      45.00000      42835.40      38169.70      0.122237
      48.00000      44566.60      38169.70      0.167592
      51.00000      47391.10      38169.70      0.241590
      54.00000      47148.60      38169.70      0.235237
      57.00000      47520.90      38169.70      0.244991
      60.00000      44155.90      38169.70      0.156832
      63.00000      43469.30      38169.70      0.138844
      66.00000      42480.70      38169.70      0.112943
      69.00000      43016.40      38169.70      0.126977
      72.00000      42794.80      38169.70      0.121171
      75.00000      42100.90      38169.70      0.102993
      78.00000      42641.10      38169.70      0.117145
      81.00000      42363.90      38169.70      0.109882
      84.00000      41665.90      38169.70      0.091596
      87.00000      41160.90      38169.70      0.078366
      90.00000      41896.70      38169.70      0.097643
      93.00000      41880.50      38169.70      0.097218
      96.00000      41602.00      38169.70      0.089922
      99.00000      41769.40      38169.70      0.094307
      102.00000      40511.90      38169.70      0.061363
      105.00000      39454.10      38169.70      0.033649
      108.00000      38528.60      38169.70      0.009404
      111.00000      38408.90      38169.70      0.006265
      114.00000      38764.60      38169.70      0.015585
      117.00000      40130.10      38169.70      0.051361
      120.00000      40052.90      38169.70      0.049338
      123.00000      39098.00      38169.70      0.024321
      126.00000      37579.50      38169.70      -0.015462
      129.00000      36792.30      38169.70      -0.036086
      132.00000      38635.70      38169.70      0.012207
      135.00000      38603.50      38169.70      0.011364
      138.00000      39068.30      38169.70      0.023542
      141.00000      39201.30      38169.70      0.027028
      144.00000      38901.20      38169.70      0.019165
      147.00000      35067.60      38169.70      -0.081271
      150.00000      34344.80      38169.70      -0.100209
      153.00000      33434.40      38169.70      -0.124061
      156.00000      34314.00      38169.70      -0.101016
      159.00000      34511.50      38169.70      -0.095840
      162.00000      35022.10      38169.70      -0.082463
      165.00000      35454.30      38169.70      -0.071140
      168.00000      34942.10      38169.70      -0.084560
      171.00000      34045.40      38169.70      -0.108051
      174.00000      32551.30      38169.70      -0.147196
      177.00000      32698.30      38169.70      -0.143345
      180.00000      29464.40      38169.70      -0.228070
      183.00000      32698.30      38169.70      -0.143345
      186.00000      32551.30      38169.70      -0.147196
      189.00000      34045.40      38169.70      -0.108051
      192.00000      34942.10      38169.70      -0.084560
      195.00000      35454.30      38169.70      -0.071140
      198.00000      35022.10      38169.70      -0.082463
      201.00000      34511.50      38169.70      -0.095840
      204.00000      34314.00      38169.70      -0.101016
      207.00000      33434.40      38169.70      -0.124061
      210.00000      34344.80      38169.70      -0.100209
      213.00000      35067.60      38169.70      -0.081271
      216.00000      38901.20      38169.70      0.019165
      219.00000      39201.30      38169.70      0.027028
      222.00000      39068.30      38169.70      0.023542
      225.00000      38603.50      38169.70      0.011364
      228.00000      38635.70      38169.70      0.012207
      231.00000      36792.30      38169.70      -0.036086
      234.00000      37579.50      38169.70      -0.015462
      237.00000      39098.00      38169.70      0.024321
      240.00000      40052.90      38169.70      0.049338
      243.00000      40130.10      38169.70      0.051361
      246.00000      38764.60      38169.70      0.015585
      249.00000      38408.90      38169.70      0.006265
      252.00000      38528.60      38169.70      0.009404
      255.00000      39454.10      38169.70      0.033649
      258.00000      40511.90      38169.70      0.061363
      261.00000      41769.40      38169.70      0.094307
      264.00000      41602.00      38169.70      0.089922
      267.00000      41880.50      38169.70      0.097218
      270.00000      41896.70      38169.70      0.097643
      273.00000      41160.90      38169.70      0.078366
      276.00000      41665.90      38169.70      0.091596
      279.00000      42363.90      38169.70      0.109882
      282.00000      42641.10      38169.70      0.117145
      285.00000      42100.90      38169.70      0.102993
      288.00000      42794.80      38169.70      0.121171
      291.00000      43016.40      38169.70      0.126977
      294.00000      42480.70      38169.70      0.112943
      297.00000      43469.30      38169.70      0.138844
      300.00000      44155.90      38169.70      0.156832
      303.00000      47520.90      38169.70      0.244991
      306.00000      47148.60      38169.70      0.235237
      309.00000      47391.10      38169.70      0.241590
      312.00000      44566.60      38169.70      0.167592
      315.00000      42835.40      38169.70      0.122237
      318.00000      38010.40      38169.70      -0.004174
      321.00000      37472.10      38169.70      -0.018275
      324.00000      37152.20      38169.70      -0.026656
      327.00000      37288.50      38169.70      -0.023087
      330.00000      37011.40      38169.70      -0.030345
      333.00000      36612.00      38169.70      -0.040811
      336.00000      35963.20      38169.70      -0.057808
      339.00000      33965.40      38169.70      -0.110148
      342.00000      32794.10      38169.70      -0.140835
      345.00000      31213.30      38169.70      -0.182248
      348.00000      31073.60      38169.70      -0.185909
      351.00000      30164.90      38169.70      -0.209716
      354.00000      30078.90      38169.70      -0.211970
      357.00000      29340.30      38169.70      -0.231320
      360.00000      29464.40      38169.70      -0.228070
       19     120       19.5900     66.2000      1.00000      0.00000
      0.00000      22727.80      31997.20      -0.289694
      3.00000      24607.10      31997.20      -0.230963
      6.00000      26250.50      31997.20      -0.179602
      9.00000      26536.60      31997.20      -0.170659
      12.00000      26705.70      31997.20      -0.165375
      15.00000      26911.80      31997.20      -0.158933
      18.00000      27130.90      31997.20      -0.152087
      21.00000      27994.40      31997.20      -0.125099
      24.00000      29833.80      31997.20      -0.067613
      27.00000      31792.70      31997.20      -0.006392
      30.00000      32897.50      31997.20      0.028136
      33.00000      33111.10      31997.20      0.034813
      36.00000      32680.70      31997.20      0.021361
      39.00000      32818.00      31997.20      0.025650
      42.00000      32438.30      31997.20      0.013784
      45.00000      33973.30      31997.20      0.061759
      48.00000      35122.30      31997.20      0.097666
      51.00000      36723.20      31997.20      0.147701
      54.00000      35919.70      31997.20      0.122589
      57.00000      35945.50      31997.20      0.123395
      60.00000      35366.60      31997.20      0.105301
      63.00000      35938.00      31997.20      0.123159
      66.00000      36786.70      31997.20      0.149683
      69.00000      37896.70      31997.20      0.184373
      72.00000      37778.30      31997.20      0.180676
      75.00000      37452.90      31997.20      0.170505
      78.00000      35586.80      31997.20      0.112185
      81.00000      34205.90      31997.20      0.069029
      84.00000      33577.20      31997.20      0.049378
      87.00000      34010.90      31997.20      0.062934
      90.00000      34582.70      31997.20      0.080804
      93.00000      36129.10      31997.20      0.129134
      96.00000      36288.60      31997.20      0.134116
      99.00000      37362.00      31997.20      0.167663
      102.00000      35860.50      31997.20      0.120738
      105.00000      33917.80      31997.20      0.060024
      108.00000      32724.10      31997.20      0.022718
      111.00000      32549.90      31997.20      0.017271
      114.00000      32712.40      31997.20      0.022350
      117.00000      34042.00      31997.20      0.063906
      120.00000      35362.60      31997.20      0.105176
      123.00000      35553.70      31997.20      0.111149
      126.00000      33968.60      31997.20      0.061610
      129.00000      31762.40      31997.20      -0.007338
      132.00000      30809.20      31997.20      -0.037130
      135.00000      29403.10      31997.20      -0.081074
      138.00000      29022.00      31997.20      -0.092985
      141.00000      29587.00      31997.20      -0.075326
      144.00000      29768.40      31997.20      -0.069656
      147.00000      29790.70      31997.20      -0.068961
      150.00000      28409.60      31997.20      -0.112123
      153.00000      27415.30      31997.20      -0.143196
      156.00000      28711.10      31997.20      -0.102699
      159.00000      29706.70      31997.20      -0.071584
      162.00000      29913.70      31997.20      -0.065116
      165.00000      31268.90      31997.20      -0.022763
      168.00000      31103.30      31997.20      -0.027937
      171.00000      28975.90      31997.20      -0.094425
      174.00000      26152.00      31997.20      -0.182680
      177.00000      26259.50      31997.20      -0.179318
      180.00000      22727.80      31997.20      -0.289695
      183.00000      26259.50      31997.20      -0.179318
      186.00000      26152.00      31997.20      -0.182680
      189.00000      28975.90      31997.20      -0.094425
      192.00000      31103.30      31997.20      -0.027937
      195.00000      31268.90      31997.20      -0.022763
      198.00000      29913.70      31997.20      -0.065116
      201.00000      29706.70      31997.20      -0.071584
      204.00000      28711.10      31997.20      -0.102699
      207.00000      27415.30      31997.20      -0.143196
      210.00000      28409.60      31997.20      -0.112123
      213.00000      29790.70      31997.20      -0.068961
      216.00000      29768.40      31997.20      -0.069656
      219.00000      29587.00      31997.20      -0.075326
      222.00000      29022.00      31997.20      -0.092985
      225.00000      29403.10      31997.20      -0.081074
      228.00000      30809.20      31997.20      -0.037130
      231.00000      31762.40      31997.20      -0.007338
      234.00000      33968.60      31997.20      0.061610
      237.00000      35553.70      31997.20      0.111149
      240.00000      35362.60      31997.20      0.105176
      243.00000      34042.00      31997.20      0.063906
      246.00000      32712.40      31997.20      0.022350
      249.00000      32549.90      31997.20      0.017271
      252.00000      32724.10      31997.20      0.022718
      255.00000      33917.80      31997.20      0.060024
      258.00000      35860.50      31997.20      0.120738
      261.00000      37362.00      31997.20      0.167663
      264.00000      36288.60      31997.20      0.134116
      267.00000      36129.10      31997.20      0.129134
      270.00000      34582.70      31997.20      0.080804
      273.00000      34010.90      31997.20      0.062934
      276.00000      33577.20      31997.20      0.049378
      279.00000      34205.90      31997.20      0.069029
      282.00000      35586.80      31997.20      0.112185
      285.00000      37452.90      31997.20      0.170505
      288.00000      37778.30      31997.20      0.180676
      291.00000      37896.70      31997.20      0.184373
      294.00000      36786.70      31997.20      0.149683
      297.00000      35938.00      31997.20      0.123159
      300.00000      35366.60      31997.20      0.105301
      303.00000      35945.50      31997.20      0.123395
      306.00000      35919.70      31997.20      0.122589
      309.00000      36723.20      31997.20      0.147701
      312.00000      35122.30      31997.20      0.097666
      315.00000      33973.30      31997.20      0.061759
      318.00000      32438.30      31997.20      0.013784
      321.00000      32818.00      31997.20      0.025650
      324.00000      32680.70      31997.20      0.021361
      327.00000      33111.10      31997.20      0.034813
      330.00000      32897.50      31997.20      0.028136
      333.00000      31792.70      31997.20      -0.006392
      336.00000      29833.80      31997.20      -0.067613
      339.00000      27994.40      31997.20      -0.125099
      342.00000      27130.90      31997.20      -0.152087
      345.00000      26911.80      31997.20      -0.158933
      348.00000      26705.70      31997.20      -0.165375
      351.00000      26536.60      31997.20      -0.170659
      354.00000      26250.50      31997.20      -0.179602
      357.00000      24607.10      31997.20      -0.230963
      360.00000      22727.80      31997.20      -0.289694
       20     120       19.5900     69.2000      1.00000      0.00000
      0.00000      22080.00      26414.40      -0.164095
      3.00000      19876.40      26414.40      -0.247518
      6.00000      22502.80      26414.40      -0.148085
      9.00000      22174.80      26414.40      -0.160503
      12.00000      22175.40      26414.40      -0.160480
      15.00000      21878.70      26414.40      -0.171712
      18.00000      21493.20      26414.40      -0.186309
      21.00000      22345.40      26414.40      -0.154047
      24.00000      24007.40      26414.40      -0.091124
      27.00000      25950.80      26414.40      -0.017550
      30.00000      27277.90      26414.40      0.032690
      33.00000      28448.70      26414.40      0.077014
      36.00000      28016.00      26414.40      0.060631
      39.00000      27173.20      26414.40      0.028727
      42.00000      26347.30      26414.40      -0.002540
      45.00000      26072.60      26414.40      -0.012940
      48.00000      25463.50      26414.40      -0.036001
      51.00000      26112.00      26414.40      -0.011447
      54.00000      26161.20      26414.40      -0.009588
      57.00000      25714.20      26414.40      -0.026510
      60.00000      26752.60      26414.40      0.012803
      63.00000      28992.30      26414.40      0.097592
      66.00000      30802.10      26414.40      0.166110
      69.00000      33127.70      26414.40      0.254153
      72.00000      33880.50      26414.40      0.282650
      75.00000      32250.70      26414.40      0.220952
      78.00000      30099.20      26414.40      0.139498
      81.00000      28634.90      26414.40      0.084064
      84.00000      27227.20      26414.40      0.030770
      87.00000      27278.70      26414.40      0.032720
      90.00000      28413.30      26414.40      0.075675
      93.00000      30422.00      26414.40      0.151720
      96.00000      30775.70      26414.40      0.165109
      99.00000      31085.60      26414.40      0.176842
      102.00000      29931.40      26414.40      0.133148
      105.00000      28741.70      26414.40      0.088106
      108.00000      27664.50      26414.40      0.047324
      111.00000      27302.90      26414.40      0.033638
      114.00000      27604.10      26414.40      0.045040
      117.00000      30423.20      26414.40      0.151765
      120.00000      31734.40      26414.40      0.201403
      123.00000      31295.50      26414.40      0.184787
      126.00000      30046.10      26414.40      0.137488
      129.00000      28572.40      26414.40      0.081698
      132.00000      25338.20      26414.40      -0.040744
      135.00000      23494.30      26414.40      -0.110552
      138.00000      22948.90      26414.40      -0.131199
      141.00000      22339.00      26414.40      -0.154290
      144.00000      21062.50      26414.40      -0.202612
      147.00000      21269.10      26414.40      -0.194794
      150.00000      22729.10      26414.40      -0.139520
      153.00000      24488.30      26414.40      -0.072920
      156.00000      26293.40      26414.40      -0.004581
      159.00000      28055.80      26414.40      0.062141
      162.00000      28291.00      26414.40      0.071045
      165.00000      26797.70      26414.40      0.014511
      168.00000      24309.20      26414.40      -0.079700
      171.00000      22219.70      26414.40      -0.158806
      174.00000      20749.30      26414.40      -0.214472
      177.00000      20149.70      26414.40      -0.237169
      180.00000      22080.00      26414.40      -0.164095
      183.00000      20149.70      26414.40      -0.237169
      186.00000      20749.30      26414.40      -0.214472
      189.00000      22219.70      26414.40      -0.158806
      192.00000      24309.20      26414.40      -0.079700
      195.00000      26797.70      26414.40      0.014511
      198.00000      28291.00      26414.40      0.071045
      201.00000      28055.80      26414.40      0.062141
      204.00000      26293.40      26414.40      -0.004581
      207.00000      24488.30      26414.40      -0.072920
      210.00000      22729.10      26414.40      -0.139520
      213.00000      21269.10      26414.40      -0.194794
      216.00000      21062.50      26414.40      -0.202612
      219.00000      22339.00      26414.40      -0.154290
      222.00000      22948.90      26414.40      -0.131199
      225.00000      23494.30      26414.40      -0.110552
      228.00000      25338.20      26414.40      -0.040744
      231.00000      28572.40      26414.40      0.081698
      234.00000      30046.10      26414.40      0.137488
      237.00000      31295.50      26414.40      0.184787
      240.00000      31734.40      26414.40      0.201403
      243.00000      30423.20      26414.40      0.151765
      246.00000      27604.10      26414.40      0.045040
      249.00000      27302.90      26414.40      0.033638
      252.00000      27664.50      26414.40      0.047324
      255.00000      28741.70      26414.40      0.088106
      258.00000      29931.40      26414.40      0.133148
      261.00000      31085.60      26414.40      0.176842
      264.00000      30775.70      26414.40      0.165109
      267.00000      30422.00      26414.40      0.151720
      270.00000      28413.30      26414.40      0.075675
      273.00000      27278.70      26414.40      0.032720
      276.00000      27227.20      26414.40      0.030770
      279.00000      28634.90      26414.40      0.084064
      282.00000      30099.20      26414.40      0.139498
      285.00000      32250.70      26414.40      0.220952
      288.00000      33880.50      26414.40      0.282650
      291.00000      33127.70      26414.40      0.254153
      294.00000      30802.10      26414.40      0.166110
      297.00000      28992.30      26414.40      0.097592
      300.00000      26752.60      26414.40      0.012803
      303.00000      25714.20      26414.40      -0.026510
      306.00000      26161.20      26414.40      -0.009588
      309.00000      26112.00      26414.40      -0.011447
      312.00000      25463.50      26414.40      -0.036001
      315.00000      26072.60      26414.40      -0.012940
      318.00000      26347.30      26414.40      -0.002540
      321.00000      27173.20      26414.40      0.028727
      324.00000      28016.00      26414.40      0.060631
      327.00000      28448.70      26414.40      0.077014
      330.00000      27277.90      26414.40      0.032690
      333.00000      25950.80      26414.40      -0.017550
      336.00000      24007.40      26414.40      -0.091124
      339.00000      22345.40      26414.40      -0.154047
      342.00000      21493.20      26414.40      -0.186309
      345.00000      21878.70      26414.40      -0.171712
      348.00000      22175.40      26414.40      -0.160480
      351.00000      22174.80      26414.40      -0.160503
      354.00000      22502.80      26414.40      -0.148085
      357.00000      19876.40      26414.40      -0.247518
      360.00000      22080.00      26414.40      -0.164095
