      20    2400    0     datakind beginning-row linenumbers
MSCD Version 1.00 Yufeng Chen and Michel A Van Hove
Lawrence Berkeley National Laboratory (LBNL), Berkeley, CA 94720
Copyright (c) Van Hove Group 1997. All rights reserved
--------------------------------------------------------------
angle-resolved photoemission extended fine structure (ARPEFS)
experimental data for Fe 2p3/2 from Fe on STO(100)  excited with hv=1810eV
provided by Pancotti et al. (LNLS in 9, June 2010)
   intial angular momentum (l) = 1
   photon polarization angle (polar,azimuth) = (  30.0,   0.0 ) (deg)
   sample temperature = 300 K
   photoemission angular scan curves
     (curve point theta phi weightc weighte//k intensity chiexp)
      20     2400       1       20     120     2400
       1     120       19.5900     12.2000      1.00000      0.00000
      0.00000      39051.50      36356.40      0.074129
      3.00000      36723.10      36356.40      0.010084
      6.00000      38633.10      36356.40      0.062621
      9.00000      39744.90      36356.40      0.093202
      12.00000      39854.80      36356.40      0.096224
      15.00000      38655.20      36356.40      0.063229
      18.00000      37538.60      36356.40      0.032516
      21.00000      38172.50      36356.40      0.049953
      24.00000      37165.90      36356.40      0.022264
      27.00000      37547.80      36356.40      0.032770
      30.00000      37203.60      36356.40      0.023302
      33.00000      38170.70      36356.40      0.049904
      36.00000      37286.70      36356.40      0.025587
      39.00000      36599.30      36356.40      0.006680
      42.00000      35345.00      36356.40      -0.027819
      45.00000      35559.60      36356.40      -0.021918
      48.00000      34400.60      36356.40      -0.053796
      51.00000      34376.70      36356.40      -0.054454
      54.00000      35577.90      36356.40      -0.021413
      57.00000      35412.00      36356.40      -0.025978
      60.00000      34585.00      36356.40      -0.048723
      63.00000      34644.50      36356.40      -0.047087
      66.00000      34256.30      36356.40      -0.057766
      69.00000      33325.20      36356.40      -0.083375
      72.00000      35037.30      36356.40      -0.036284
      75.00000      36271.70      36356.40      -0.002330
      78.00000      36926.40      36356.40      0.015679
      81.00000      36642.90      36356.40      0.007880
      84.00000      37873.70      36356.40      0.041734
      87.00000      37150.60      36356.40      0.021844
      90.00000      37707.60      36356.40      0.037166
      93.00000      37150.60      36356.40      0.021844
      96.00000      37873.70      36356.40      0.041734
      99.00000      36642.90      36356.40      0.007880
      102.00000      36926.40      36356.40      0.015679
      105.00000      36271.70      36356.40      -0.002330
      108.00000      35037.30      36356.40      -0.036284
      111.00000      33325.20      36356.40      -0.083375
      114.00000      34256.30      36356.40      -0.057766
      117.00000      34644.50      36356.40      -0.047087
      120.00000      34585.00      36356.40      -0.048723
      123.00000      35412.00      36356.40      -0.025978
      126.00000      35577.90      36356.40      -0.021413
      129.00000      34376.70      36356.40      -0.054454
      132.00000      34400.60      36356.40      -0.053796
      135.00000      35559.60      36356.40      -0.021918
      138.00000      35345.00      36356.40      -0.027819
      141.00000      36599.30      36356.40      0.006680
      144.00000      37286.70      36356.40      0.025587
      147.00000      38170.70      36356.40      0.049904
      150.00000      37203.60      36356.40      0.023302
      153.00000      37547.80      36356.40      0.032770
      156.00000      37165.90      36356.40      0.022264
      159.00000      38172.50      36356.40      0.049953
      162.00000      37538.60      36356.40      0.032516
      165.00000      38655.20      36356.40      0.063229
      168.00000      39854.80      36356.40      0.096224
      171.00000      39744.90      36356.40      0.093202
      174.00000      38633.10      36356.40      0.062621
      177.00000      36723.10      36356.40      0.010084
      180.00000      39051.50      36356.40      0.074129
      183.00000      36723.10      36356.40      0.010084
      186.00000      38633.10      36356.40      0.062621
      189.00000      39744.90      36356.40      0.093202
      192.00000      39854.80      36356.40      0.096224
      195.00000      38655.20      36356.40      0.063229
      198.00000      37538.60      36356.40      0.032516
      201.00000      38172.50      36356.40      0.049953
      204.00000      37165.90      36356.40      0.022264
      207.00000      37547.80      36356.40      0.032770
      210.00000      37203.60      36356.40      0.023302
      213.00000      38170.70      36356.40      0.049904
      216.00000      37286.70      36356.40      0.025587
      219.00000      36599.30      36356.40      0.006680
      222.00000      35345.00      36356.40      -0.027819
      225.00000      35559.60      36356.40      -0.021918
      228.00000      34400.60      36356.40      -0.053796
      231.00000      34376.70      36356.40      -0.054454
      234.00000      35577.90      36356.40      -0.021413
      237.00000      35412.00      36356.40      -0.025978
      240.00000      34585.00      36356.40      -0.048723
      243.00000      34644.50      36356.40      -0.047087
      246.00000      34256.30      36356.40      -0.057766
      249.00000      33325.20      36356.40      -0.083375
      252.00000      35037.30      36356.40      -0.036284
      255.00000      36271.70      36356.40      -0.002330
      258.00000      36926.40      36356.40      0.015679
      261.00000      36642.90      36356.40      0.007880
      264.00000      37873.70      36356.40      0.041734
      267.00000      37150.60      36356.40      0.021844
      270.00000      37707.60      36356.40      0.037166
      273.00000      37150.60      36356.40      0.021844
      276.00000      37873.70      36356.40      0.041734
      279.00000      36642.90      36356.40      0.007880
      282.00000      36926.40      36356.40      0.015679
      285.00000      36271.70      36356.40      -0.002330
      288.00000      35037.30      36356.40      -0.036284
      291.00000      33325.20      36356.40      -0.083375
      294.00000      34256.30      36356.40      -0.057766
      297.00000      34644.50      36356.40      -0.047087
      300.00000      34585.00      36356.40      -0.048723
      303.00000      35412.00      36356.40      -0.025978
      306.00000      35577.90      36356.40      -0.021413
      309.00000      34376.70      36356.40      -0.054454
      312.00000      34400.60      36356.40      -0.053796
      315.00000      35559.60      36356.40      -0.021918
      318.00000      35345.00      36356.40      -0.027819
      321.00000      36599.30      36356.40      0.006680
      324.00000      37286.70      36356.40      0.025587
      327.00000      38170.70      36356.40      0.049904
      330.00000      37203.60      36356.40      0.023302
      333.00000      37547.80      36356.40      0.032770
      336.00000      37165.90      36356.40      0.022264
      339.00000      38172.50      36356.40      0.049953
      342.00000      37538.60      36356.40      0.032516
      345.00000      38655.20      36356.40      0.063229
      348.00000      39854.80      36356.40      0.096224
      351.00000      39744.90      36356.40      0.093202
      354.00000      38633.10      36356.40      0.062621
      357.00000      36723.10      36356.40      0.010084
      360.00000      39051.50      36356.40      0.074129
       2     120       19.5900     15.2000      1.00000      0.00000
      0.00000      37403.70      34729.10      0.077011
      3.00000      38948.70      34729.10      0.121499
      6.00000      39239.50      34729.10      0.129873
      9.00000      39226.60      34729.10      0.129501
      12.00000      39311.40      34729.10      0.131944
      15.00000      37959.90      34729.10      0.093028
      18.00000      36970.70      34729.10      0.064544
      21.00000      35894.20      34729.10      0.033548
      24.00000      35174.60      34729.10      0.012827
      27.00000      34005.60      34729.10      -0.020832
      30.00000      33774.40      34729.10      -0.027491
      33.00000      33713.70      34729.10      -0.029239
      36.00000      34218.30      34729.10      -0.014710
      39.00000      34567.00      34729.10      -0.004669
      42.00000      34853.00      34729.10      0.003565
      45.00000      34579.60      34729.10      -0.004305
      48.00000      34355.80      34729.10      -0.010749
      51.00000      33764.80      34729.10      -0.027767
      54.00000      32506.20      34729.10      -0.064007
      57.00000      31740.50      34729.10      -0.086055
      60.00000      31998.10      34729.10      -0.078639
      63.00000      31549.30      34729.10      -0.091560
      66.00000      31052.80      34729.10      -0.105858
      69.00000      31585.80      34729.10      -0.090510
      72.00000      31851.90      34729.10      -0.082848
      75.00000      31483.00      34729.10      -0.093469
      78.00000      33136.20      34729.10      -0.045868
      81.00000      35098.70      34729.10      0.010642
      84.00000      36060.80      34729.10      0.038346
      87.00000      37179.30      34729.10      0.070551
      90.00000      37951.60      34729.10      0.092789
      93.00000      37179.30      34729.10      0.070551
      96.00000      36060.80      34729.10      0.038346
      99.00000      35098.70      34729.10      0.010642
      102.00000      33136.20      34729.10      -0.045868
      105.00000      31483.00      34729.10      -0.093469
      108.00000      31851.90      34729.10      -0.082848
      111.00000      31585.80      34729.10      -0.090510
      114.00000      31052.80      34729.10      -0.105858
      117.00000      31549.30      34729.10      -0.091560
      120.00000      31998.10      34729.10      -0.078639
      123.00000      31740.50      34729.10      -0.086055
      126.00000      32506.20      34729.10      -0.064007
      129.00000      33764.80      34729.10      -0.027767
      132.00000      34355.80      34729.10      -0.010749
      135.00000      34579.60      34729.10      -0.004305
      138.00000      34853.00      34729.10      0.003565
      141.00000      34567.00      34729.10      -0.004669
      144.00000      34218.30      34729.10      -0.014710
      147.00000      33713.70      34729.10      -0.029239
      150.00000      33774.40      34729.10      -0.027491
      153.00000      34005.60      34729.10      -0.020832
      156.00000      35174.60      34729.10      0.012827
      159.00000      35894.20      34729.10      0.033548
      162.00000      36970.70      34729.10      0.064544
      165.00000      37959.90      34729.10      0.093028
      168.00000      39311.40      34729.10      0.131944
      171.00000      39226.60      34729.10      0.129501
      174.00000      39239.50      34729.10      0.129873
      177.00000      38948.70      34729.10      0.121499
      180.00000      37403.70      34729.10      0.077011
      183.00000      38948.70      34729.10      0.121499
      186.00000      39239.50      34729.10      0.129873
      189.00000      39226.60      34729.10      0.129501
      192.00000      39311.40      34729.10      0.131944
      195.00000      37959.90      34729.10      0.093028
      198.00000      36970.70      34729.10      0.064544
      201.00000      35894.20      34729.10      0.033548
      204.00000      35174.60      34729.10      0.012827
      207.00000      34005.60      34729.10      -0.020832
      210.00000      33774.40      34729.10      -0.027491
      213.00000      33713.70      34729.10      -0.029239
      216.00000      34218.30      34729.10      -0.014710
      219.00000      34567.00      34729.10      -0.004669
      222.00000      34853.00      34729.10      0.003565
      225.00000      34579.60      34729.10      -0.004305
      228.00000      34355.80      34729.10      -0.010749
      231.00000      33764.80      34729.10      -0.027767
      234.00000      32506.20      34729.10      -0.064007
      237.00000      31740.50      34729.10      -0.086055
      240.00000      31998.10      34729.10      -0.078639
      243.00000      31549.30      34729.10      -0.091560
      246.00000      31052.80      34729.10      -0.105858
      249.00000      31585.80      34729.10      -0.090510
      252.00000      31851.90      34729.10      -0.082848
      255.00000      31483.00      34729.10      -0.093469
      258.00000      33136.20      34729.10      -0.045868
      261.00000      35098.70      34729.10      0.010642
      264.00000      36060.80      34729.10      0.038346
      267.00000      37179.30      34729.10      0.070551
      270.00000      37951.60      34729.10      0.092789
      273.00000      37179.30      34729.10      0.070551
      276.00000      36060.80      34729.10      0.038346
      279.00000      35098.70      34729.10      0.010642
      282.00000      33136.20      34729.10      -0.045868
      285.00000      31483.00      34729.10      -0.093469
      288.00000      31851.90      34729.10      -0.082848
      291.00000      31585.80      34729.10      -0.090510
      294.00000      31052.80      34729.10      -0.105858
      297.00000      31549.30      34729.10      -0.091560
      300.00000      31998.10      34729.10      -0.078639
      303.00000      31740.50      34729.10      -0.086055
      306.00000      32506.20      34729.10      -0.064007
      309.00000      33764.80      34729.10      -0.027767
      312.00000      34355.80      34729.10      -0.010749
      315.00000      34579.60      34729.10      -0.004305
      318.00000      34853.00      34729.10      0.003565
      321.00000      34567.00      34729.10      -0.004669
      324.00000      34218.30      34729.10      -0.014710
      327.00000      33713.70      34729.10      -0.029239
      330.00000      33774.40      34729.10      -0.027491
      333.00000      34005.60      34729.10      -0.020832
      336.00000      35174.60      34729.10      0.012827
      339.00000      35894.20      34729.10      0.033548
      342.00000      36970.70      34729.10      0.064544
      345.00000      37959.90      34729.10      0.093028
      348.00000      39311.40      34729.10      0.131944
      351.00000      39226.60      34729.10      0.129501
      354.00000      39239.50      34729.10      0.129873
      357.00000      38948.70      34729.10      0.121499
      360.00000      37403.70      34729.10      0.077011
       3     120       19.5900     18.2000      1.00000      0.00000
      0.00000      48627.90      40841.50      0.190650
      3.00000      44206.80      40841.50      0.082399
      6.00000      47921.30      40841.50      0.173349
      9.00000      47539.80      40841.50      0.164006
      12.00000      45577.00      40841.50      0.115948
      15.00000      44872.20      40841.50      0.098692
      18.00000      45432.70      40841.50      0.112415
      21.00000      44680.00      40841.50      0.093986
      24.00000      42689.40      40841.50      0.045246
      27.00000      42100.60      40841.50      0.030828
      30.00000      41181.60      40841.50      0.008327
      33.00000      39489.10      40841.50      -0.033113
      36.00000      39597.70      40841.50      -0.030454
      39.00000      40855.70      40841.50      0.000348
      42.00000      42851.90      40841.50      0.049226
      45.00000      41022.30      40841.50      0.004427
      48.00000      42338.20      40841.50      0.036646
      51.00000      41178.60      40841.50      0.008255
      54.00000      39879.00      40841.50      -0.023567
      57.00000      37467.60      40841.50      -0.082609
      60.00000      37791.60      40841.50      -0.074676
      63.00000      36361.50      40841.50      -0.109692
      66.00000      36209.00      40841.50      -0.113426
      69.00000      34962.20      40841.50      -0.143954
      72.00000      35262.10      40841.50      -0.136612
      75.00000      36036.10      40841.50      -0.117660
      78.00000      36369.30      40841.50      -0.109502
      81.00000      37475.90      40841.50      -0.082405
      84.00000      39799.20      40841.50      -0.025520
      87.00000      40206.70      40841.50      -0.015543
      90.00000      40938.40      40841.50      0.002373
      93.00000      40206.70      40841.50      -0.015543
      96.00000      39799.20      40841.50      -0.025520
      99.00000      37475.90      40841.50      -0.082405
      102.00000      36369.30      40841.50      -0.109502
      105.00000      36036.10      40841.50      -0.117660
      108.00000      35262.10      40841.50      -0.136612
      111.00000      34962.20      40841.50      -0.143954
      114.00000      36209.00      40841.50      -0.113426
      117.00000      36361.50      40841.50      -0.109692
      120.00000      37791.60      40841.50      -0.074676
      123.00000      37467.60      40841.50      -0.082609
      126.00000      39879.00      40841.50      -0.023567
      129.00000      41178.60      40841.50      0.008255
      132.00000      42338.20      40841.50      0.036646
      135.00000      41022.30      40841.50      0.004427
      138.00000      42851.90      40841.50      0.049226
      141.00000      40855.70      40841.50      0.000348
      144.00000      39597.70      40841.50      -0.030454
      147.00000      39489.10      40841.50      -0.033113
      150.00000      41181.60      40841.50      0.008327
      153.00000      42100.60      40841.50      0.030828
      156.00000      42689.40      40841.50      0.045246
      159.00000      44680.00      40841.50      0.093986
      162.00000      45432.70      40841.50      0.112415
      165.00000      44872.20      40841.50      0.098692
      168.00000      45577.00      40841.50      0.115948
      171.00000      47539.80      40841.50      0.164006
      174.00000      47921.30      40841.50      0.173349
      177.00000      44206.80      40841.50      0.082399
      180.00000      48627.90      40841.50      0.190650
      183.00000      44206.80      40841.50      0.082399
      186.00000      47921.30      40841.50      0.173349
      189.00000      47539.80      40841.50      0.164006
      192.00000      45577.00      40841.50      0.115948
      195.00000      44872.20      40841.50      0.098692
      198.00000      45432.70      40841.50      0.112415
      201.00000      44680.00      40841.50      0.093986
      204.00000      42689.40      40841.50      0.045246
      207.00000      42100.60      40841.50      0.030828
      210.00000      41181.60      40841.50      0.008327
      213.00000      39489.10      40841.50      -0.033113
      216.00000      39597.70      40841.50      -0.030454
      219.00000      40855.70      40841.50      0.000348
      222.00000      42851.90      40841.50      0.049226
      225.00000      41022.30      40841.50      0.004427
      228.00000      42338.20      40841.50      0.036646
      231.00000      41178.60      40841.50      0.008255
      234.00000      39879.00      40841.50      -0.023567
      237.00000      37467.60      40841.50      -0.082609
      240.00000      37791.60      40841.50      -0.074676
      243.00000      36361.50      40841.50      -0.109692
      246.00000      36209.00      40841.50      -0.113426
      249.00000      34962.20      40841.50      -0.143954
      252.00000      35262.10      40841.50      -0.136612
      255.00000      36036.10      40841.50      -0.117660
      258.00000      36369.30      40841.50      -0.109502
      261.00000      37475.90      40841.50      -0.082405
      264.00000      39799.20      40841.50      -0.025520
      267.00000      40206.70      40841.50      -0.015543
      270.00000      40938.40      40841.50      0.002373
      273.00000      40206.70      40841.50      -0.015543
      276.00000      39799.20      40841.50      -0.025520
      279.00000      37475.90      40841.50      -0.082405
      282.00000      36369.30      40841.50      -0.109502
      285.00000      36036.10      40841.50      -0.117660
      288.00000      35262.10      40841.50      -0.136612
      291.00000      34962.20      40841.50      -0.143954
      294.00000      36209.00      40841.50      -0.113426
      297.00000      36361.50      40841.50      -0.109692
      300.00000      37791.60      40841.50      -0.074676
      303.00000      37467.60      40841.50      -0.082609
      306.00000      39879.00      40841.50      -0.023567
      309.00000      41178.60      40841.50      0.008255
      312.00000      42338.20      40841.50      0.036646
      315.00000      41022.30      40841.50      0.004427
      318.00000      42851.90      40841.50      0.049226
      321.00000      40855.70      40841.50      0.000348
      324.00000      39597.70      40841.50      -0.030454
      327.00000      39489.10      40841.50      -0.033113
      330.00000      41181.60      40841.50      0.008327
      333.00000      42100.60      40841.50      0.030828
      336.00000      42689.40      40841.50      0.045246
      339.00000      44680.00      40841.50      0.093986
      342.00000      45432.70      40841.50      0.112415
      345.00000      44872.20      40841.50      0.098692
      348.00000      45577.00      40841.50      0.115948
      351.00000      47539.80      40841.50      0.164006
      354.00000      47921.30      40841.50      0.173349
      357.00000      44206.80      40841.50      0.082399
      360.00000      48627.90      40841.50      0.190650
       4     120       19.5900     21.2000      1.00000      0.00000
      0.00000      52344.50      44706.70      0.170844
      3.00000      50309.30      44706.70      0.125321
      6.00000      49513.60      44706.70      0.107523
      9.00000      48308.90      44706.70      0.080575
      12.00000      49047.90      44706.70      0.097104
      15.00000      47833.70      44706.70      0.069946
      18.00000      46956.40      44706.70      0.050323
      21.00000      45139.20      44706.70      0.009674
      24.00000      43791.50      44706.70      -0.020470
      27.00000      42112.80      44706.70      -0.058020
      30.00000      41818.70      44706.70      -0.064598
      33.00000      42387.20      44706.70      -0.051881
      36.00000      44282.30      44706.70      -0.009491
      39.00000      43551.30      44706.70      -0.025843
      42.00000      43644.20      44706.70      -0.023766
      45.00000      43598.10      44706.70      -0.024796
      48.00000      43347.00      44706.70      -0.030412
      51.00000      44131.50      44706.70      -0.012866
      54.00000      47354.20      44706.70      0.059221
      57.00000      48755.10      44706.70      0.090555
      60.00000      47311.60      44706.70      0.058268
      63.00000      44957.40      44706.70      0.005609
      66.00000      43929.60      44706.70      -0.017382
      69.00000      41211.30      44706.70      -0.078184
      72.00000      38808.70      44706.70      -0.131925
      75.00000      38618.90      44706.70      -0.136171
      78.00000      40054.50      44706.70      -0.104059
      81.00000      41152.00      44706.70      -0.079511
      84.00000      40880.70      44706.70      -0.085579
      87.00000      45088.80      44706.70      0.008548
      90.00000      47324.30      44706.70      0.058551
      93.00000      45088.80      44706.70      0.008548
      96.00000      40880.70      44706.70      -0.085579
      99.00000      41152.00      44706.70      -0.079511
      102.00000      40054.50      44706.70      -0.104059
      105.00000      38618.90      44706.70      -0.136171
      108.00000      38808.70      44706.70      -0.131925
      111.00000      41211.30      44706.70      -0.078184
      114.00000      43929.60      44706.70      -0.017382
      117.00000      44957.40      44706.70      0.005609
      120.00000      47311.60      44706.70      0.058268
      123.00000      48755.10      44706.70      0.090555
      126.00000      47354.20      44706.70      0.059221
      129.00000      44131.50      44706.70      -0.012866
      132.00000      43347.00      44706.70      -0.030412
      135.00000      43598.10      44706.70      -0.024796
      138.00000      43644.20      44706.70      -0.023766
      141.00000      43551.30      44706.70      -0.025843
      144.00000      44282.30      44706.70      -0.009491
      147.00000      42387.20      44706.70      -0.051881
      150.00000      41818.70      44706.70      -0.064598
      153.00000      42112.80      44706.70      -0.058020
      156.00000      43791.50      44706.70      -0.020470
      159.00000      45139.20      44706.70      0.009674
      162.00000      46956.40      44706.70      0.050323
      165.00000      47833.70      44706.70      0.069946
      168.00000      49047.90      44706.70      0.097104
      171.00000      48308.90      44706.70      0.080575
      174.00000      49513.60      44706.70      0.107523
      177.00000      50309.30      44706.70      0.125321
      180.00000      52344.50      44706.70      0.170844
      183.00000      50309.30      44706.70      0.125321
      186.00000      49513.60      44706.70      0.107523
      189.00000      48308.90      44706.70      0.080575
      192.00000      49047.90      44706.70      0.097104
      195.00000      47833.70      44706.70      0.069946
      198.00000      46956.40      44706.70      0.050323
      201.00000      45139.20      44706.70      0.009674
      204.00000      43791.50      44706.70      -0.020470
      207.00000      42112.80      44706.70      -0.058020
      210.00000      41818.70      44706.70      -0.064598
      213.00000      42387.20      44706.70      -0.051881
      216.00000      44282.30      44706.70      -0.009491
      219.00000      43551.30      44706.70      -0.025843
      222.00000      43644.20      44706.70      -0.023766
      225.00000      43598.10      44706.70      -0.024796
      228.00000      43347.00      44706.70      -0.030412
      231.00000      44131.50      44706.70      -0.012866
      234.00000      47354.20      44706.70      0.059221
      237.00000      48755.10      44706.70      0.090555
      240.00000      47311.60      44706.70      0.058268
      243.00000      44957.40      44706.70      0.005609
      246.00000      43929.60      44706.70      -0.017382
      249.00000      41211.30      44706.70      -0.078184
      252.00000      38808.70      44706.70      -0.131925
      255.00000      38618.90      44706.70      -0.136171
      258.00000      40054.50      44706.70      -0.104059
      261.00000      41152.00      44706.70      -0.079511
      264.00000      40880.70      44706.70      -0.085579
      267.00000      45088.80      44706.70      0.008548
      270.00000      47324.30      44706.70      0.058551
      273.00000      45088.80      44706.70      0.008548
      276.00000      40880.70      44706.70      -0.085579
      279.00000      41152.00      44706.70      -0.079511
      282.00000      40054.50      44706.70      -0.104059
      285.00000      38618.90      44706.70      -0.136171
      288.00000      38808.70      44706.70      -0.131925
      291.00000      41211.30      44706.70      -0.078184
      294.00000      43929.60      44706.70      -0.017382
      297.00000      44957.40      44706.70      0.005609
      300.00000      47311.60      44706.70      0.058268
      303.00000      48755.10      44706.70      0.090555
      306.00000      47354.20      44706.70      0.059221
      309.00000      44131.50      44706.70      -0.012866
      312.00000      43347.00      44706.70      -0.030412
      315.00000      43598.10      44706.70      -0.024796
      318.00000      43644.20      44706.70      -0.023766
      321.00000      43551.30      44706.70      -0.025843
      324.00000      44282.30      44706.70      -0.009491
      327.00000      42387.20      44706.70      -0.051881
      330.00000      41818.70      44706.70      -0.064598
      333.00000      42112.80      44706.70      -0.058020
      336.00000      43791.50      44706.70      -0.020470
      339.00000      45139.20      44706.70      0.009674
      342.00000      46956.40      44706.70      0.050323
      345.00000      47833.70      44706.70      0.069946
      348.00000      49047.90      44706.70      0.097104
      351.00000      48308.90      44706.70      0.080575
      354.00000      49513.60      44706.70      0.107523
      357.00000      50309.30      44706.70      0.125321
      360.00000      52344.50      44706.70      0.170844
       5     120       19.5900     24.2000      1.00000      0.00000
      0.00000      45393.90      42653.40      0.064251
      3.00000      46733.90      42653.40      0.095668
      6.00000      45606.90      42653.40      0.069244
      9.00000      45290.60      42653.40      0.061829
      12.00000      44754.10      42653.40      0.049251
      15.00000      42639.10      42653.40      -0.000336
      18.00000      43194.80      42653.40      0.012693
      21.00000      43907.30      42653.40      0.029398
      24.00000      43461.50      42653.40      0.018945
      27.00000      41946.00      42653.40      -0.016584
      30.00000      43894.60      42653.40      0.029100
      33.00000      41344.50      42653.40      -0.030687
      36.00000      39531.80      42653.40      -0.073184
      39.00000      38371.10      42653.40      -0.100397
      42.00000      39481.80      42653.40      -0.074357
      45.00000      38277.70      42653.40      -0.102588
      48.00000      41365.70      42653.40      -0.030189
      51.00000      42759.90      42653.40      0.002496
      54.00000      43773.50      42653.40      0.026260
      57.00000      43604.50      42653.40      0.022300
      60.00000      43268.80      42653.40      0.014429
      63.00000      44313.90      42653.40      0.038930
      66.00000      42293.40      42653.40      -0.008441
      69.00000      41652.50      42653.40      -0.023466
      72.00000      39773.40      42653.40      -0.067522
      75.00000      40892.10      42653.40      -0.041294
      78.00000      38243.20      42653.40      -0.103397
      81.00000      40003.60      42653.40      -0.062125
      84.00000      41592.60      42653.40      -0.024870
      87.00000      44032.50      42653.40      0.032332
      90.00000      44681.60      42653.40      0.047552
      93.00000      44032.50      42653.40      0.032332
      96.00000      41592.60      42653.40      -0.024870
      99.00000      40003.60      42653.40      -0.062125
      102.00000      38243.20      42653.40      -0.103397
      105.00000      40892.10      42653.40      -0.041294
      108.00000      39773.40      42653.40      -0.067522
      111.00000      41652.50      42653.40      -0.023466
      114.00000      42293.40      42653.40      -0.008441
      117.00000      44313.90      42653.40      0.038930
      120.00000      43268.80      42653.40      0.014429
      123.00000      43604.50      42653.40      0.022300
      126.00000      43773.50      42653.40      0.026260
      129.00000      42759.90      42653.40      0.002496
      132.00000      41365.70      42653.40      -0.030189
      135.00000      38277.70      42653.40      -0.102588
      138.00000      39481.80      42653.40      -0.074357
      141.00000      38371.10      42653.40      -0.100397
      144.00000      39531.80      42653.40      -0.073184
      147.00000      41344.50      42653.40      -0.030687
      150.00000      43894.60      42653.40      0.029100
      153.00000      41946.00      42653.40      -0.016584
      156.00000      43461.50      42653.40      0.018945
      159.00000      43907.30      42653.40      0.029398
      162.00000      43194.80      42653.40      0.012693
      165.00000      42639.10      42653.40      -0.000336
      168.00000      44754.10      42653.40      0.049251
      171.00000      45290.60      42653.40      0.061829
      174.00000      45606.90      42653.40      0.069244
      177.00000      46733.90      42653.40      0.095668
      180.00000      45393.90      42653.40      0.064251
      183.00000      46733.90      42653.40      0.095668
      186.00000      45606.90      42653.40      0.069244
      189.00000      45290.60      42653.40      0.061829
      192.00000      44754.10      42653.40      0.049251
      195.00000      42639.10      42653.40      -0.000336
      198.00000      43194.80      42653.40      0.012693
      201.00000      43907.30      42653.40      0.029398
      204.00000      43461.50      42653.40      0.018945
      207.00000      41946.00      42653.40      -0.016584
      210.00000      43894.60      42653.40      0.029100
      213.00000      41344.50      42653.40      -0.030687
      216.00000      39531.80      42653.40      -0.073184
      219.00000      38371.10      42653.40      -0.100397
      222.00000      39481.80      42653.40      -0.074357
      225.00000      38277.70      42653.40      -0.102588
      228.00000      41365.70      42653.40      -0.030189
      231.00000      42759.90      42653.40      0.002496
      234.00000      43773.50      42653.40      0.026260
      237.00000      43604.50      42653.40      0.022300
      240.00000      43268.80      42653.40      0.014429
      243.00000      44313.90      42653.40      0.038930
      246.00000      42293.40      42653.40      -0.008441
      249.00000      41652.50      42653.40      -0.023466
      252.00000      39773.40      42653.40      -0.067522
      255.00000      40892.10      42653.40      -0.041294
      258.00000      38243.20      42653.40      -0.103397
      261.00000      40003.60      42653.40      -0.062125
      264.00000      41592.60      42653.40      -0.024870
      267.00000      44032.50      42653.40      0.032332
      270.00000      44681.60      42653.40      0.047552
      273.00000      44032.50      42653.40      0.032332
      276.00000      41592.60      42653.40      -0.024870
      279.00000      40003.60      42653.40      -0.062125
      282.00000      38243.20      42653.40      -0.103397
      285.00000      40892.10      42653.40      -0.041294
      288.00000      39773.40      42653.40      -0.067522
      291.00000      41652.50      42653.40      -0.023466
      294.00000      42293.40      42653.40      -0.008441
      297.00000      44313.90      42653.40      0.038930
      300.00000      43268.80      42653.40      0.014429
      303.00000      43604.50      42653.40      0.022300
      306.00000      43773.50      42653.40      0.026260
      309.00000      42759.90      42653.40      0.002496
      312.00000      41365.70      42653.40      -0.030189
      315.00000      38277.70      42653.40      -0.102588
      318.00000      39481.80      42653.40      -0.074357
      321.00000      38371.10      42653.40      -0.100397
      324.00000      39531.80      42653.40      -0.073184
      327.00000      41344.50      42653.40      -0.030687
      330.00000      43894.60      42653.40      0.029100
      333.00000      41946.00      42653.40      -0.016584
      336.00000      43461.50      42653.40      0.018945
      339.00000      43907.30      42653.40      0.029398
      342.00000      43194.80      42653.40      0.012693
      345.00000      42639.10      42653.40      -0.000336
      348.00000      44754.10      42653.40      0.049251
      351.00000      45290.60      42653.40      0.061829
      354.00000      45606.90      42653.40      0.069244
      357.00000      46733.90      42653.40      0.095668
      360.00000      45393.90      42653.40      0.064251
       6     120       19.5900     27.2000      1.00000      0.00000
      0.00000      43771.70      41635.40      0.051309
      3.00000      48997.40      41635.40      0.176821
      6.00000      42569.60      41635.40      0.022437
      9.00000      42422.60      41635.40      0.018906
      12.00000      41516.80      41635.40      -0.002847
      15.00000      43346.50      41635.40      0.041099
      18.00000      43738.10      41635.40      0.050504
      21.00000      43566.70      41635.40      0.046387
      24.00000      42818.10      41635.40      0.028406
      27.00000      39683.50      41635.40      -0.046881
      30.00000      38683.20      41635.40      -0.070905
      33.00000      37728.90      41635.40      -0.093827
      36.00000      40097.50      41635.40      -0.036936
      39.00000      41104.10      41635.40      -0.012760
      42.00000      43764.00      41635.40      0.051126
      45.00000      43848.00      41635.40      0.053142
      48.00000      44613.70      41635.40      0.071534
      51.00000      43299.20      41635.40      0.039962
      54.00000      40722.40      41635.40      -0.021928
      57.00000      40961.20      41635.40      -0.016193
      60.00000      40985.50      41635.40      -0.015608
      63.00000      39453.80      41635.40      -0.052396
      66.00000      39252.90      41635.40      -0.057223
      69.00000      40816.60      41635.40      -0.019666
      72.00000      40008.00      41635.40      -0.039088
      75.00000      38312.80      41635.40      -0.079802
      78.00000      36756.50      41635.40      -0.117181
      81.00000      37495.90      41635.40      -0.099423
      84.00000      39263.90      41635.40      -0.056959
      87.00000      41651.60      41635.40      0.000388
      90.00000      44417.30      41635.40      0.066816
      93.00000      41651.60      41635.40      0.000388
      96.00000      39263.90      41635.40      -0.056959
      99.00000      37495.90      41635.40      -0.099423
      102.00000      36756.50      41635.40      -0.117181
      105.00000      38312.80      41635.40      -0.079802
      108.00000      40008.00      41635.40      -0.039088
      111.00000      40816.60      41635.40      -0.019666
      114.00000      39252.90      41635.40      -0.057223
      117.00000      39453.80      41635.40      -0.052396
      120.00000      40985.50      41635.40      -0.015608
      123.00000      40961.20      41635.40      -0.016193
      126.00000      40722.40      41635.40      -0.021928
      129.00000      43299.20      41635.40      0.039962
      132.00000      44613.70      41635.40      0.071534
      135.00000      43848.00      41635.40      0.053142
      138.00000      43764.00      41635.40      0.051126
      141.00000      41104.10      41635.40      -0.012760
      144.00000      40097.50      41635.40      -0.036936
      147.00000      37728.90      41635.40      -0.093827
      150.00000      38683.20      41635.40      -0.070905
      153.00000      39683.50      41635.40      -0.046881
      156.00000      42818.10      41635.40      0.028406
      159.00000      43566.70      41635.40      0.046387
      162.00000      43738.10      41635.40      0.050504
      165.00000      43346.50      41635.40      0.041099
      168.00000      41516.80      41635.40      -0.002847
      171.00000      42422.60      41635.40      0.018906
      174.00000      42569.60      41635.40      0.022437
      177.00000      48997.40      41635.40      0.176821
      180.00000      43771.70      41635.40      0.051309
      183.00000      48997.40      41635.40      0.176821
      186.00000      42569.60      41635.40      0.022437
      189.00000      42422.60      41635.40      0.018906
      192.00000      41516.80      41635.40      -0.002847
      195.00000      43346.50      41635.40      0.041099
      198.00000      43738.10      41635.40      0.050504
      201.00000      43566.70      41635.40      0.046387
      204.00000      42818.10      41635.40      0.028406
      207.00000      39683.50      41635.40      -0.046881
      210.00000      38683.20      41635.40      -0.070905
      213.00000      37728.90      41635.40      -0.093827
      216.00000      40097.50      41635.40      -0.036936
      219.00000      41104.10      41635.40      -0.012760
      222.00000      43764.00      41635.40      0.051126
      225.00000      43848.00      41635.40      0.053142
      228.00000      44613.70      41635.40      0.071534
      231.00000      43299.20      41635.40      0.039962
      234.00000      40722.40      41635.40      -0.021928
      237.00000      40961.20      41635.40      -0.016193
      240.00000      40985.50      41635.40      -0.015608
      243.00000      39453.80      41635.40      -0.052396
      246.00000      39252.90      41635.40      -0.057223
      249.00000      40816.60      41635.40      -0.019666
      252.00000      40008.00      41635.40      -0.039088
      255.00000      38312.80      41635.40      -0.079802
      258.00000      36756.50      41635.40      -0.117181
      261.00000      37495.90      41635.40      -0.099423
      264.00000      39263.90      41635.40      -0.056959
      267.00000      41651.60      41635.40      0.000388
      270.00000      44417.30      41635.40      0.066816
      273.00000      41651.60      41635.40      0.000388
      276.00000      39263.90      41635.40      -0.056959
      279.00000      37495.90      41635.40      -0.099423
      282.00000      36756.50      41635.40      -0.117181
      285.00000      38312.80      41635.40      -0.079802
      288.00000      40008.00      41635.40      -0.039088
      291.00000      40816.60      41635.40      -0.019666
      294.00000      39252.90      41635.40      -0.057223
      297.00000      39453.80      41635.40      -0.052396
      300.00000      40985.50      41635.40      -0.015608
      303.00000      40961.20      41635.40      -0.016193
      306.00000      40722.40      41635.40      -0.021928
      309.00000      43299.20      41635.40      0.039962
      312.00000      44613.70      41635.40      0.071534
      315.00000      43848.00      41635.40      0.053142
      318.00000      43764.00      41635.40      0.051126
      321.00000      41104.10      41635.40      -0.012760
      324.00000      40097.50      41635.40      -0.036936
      327.00000      37728.90      41635.40      -0.093827
      330.00000      38683.20      41635.40      -0.070905
      333.00000      39683.50      41635.40      -0.046881
      336.00000      42818.10      41635.40      0.028406
      339.00000      43566.70      41635.40      0.046387
      342.00000      43738.10      41635.40      0.050504
      345.00000      43346.50      41635.40      0.041099
      348.00000      41516.80      41635.40      -0.002847
      351.00000      42422.60      41635.40      0.018906
      354.00000      42569.60      41635.40      0.022437
      357.00000      48997.40      41635.40      0.176821
      360.00000      43771.70      41635.40      0.051309
       7     120       19.5900     30.2000      1.00000      0.00000
      0.00000      97051.70      94706.40      0.024765
      3.00000      97918.60      94706.40      0.033918
      6.00000      95786.20      94706.40      0.011402
      9.00000      95719.80      94706.40      0.010701
      12.00000      93896.60      94706.40      -0.008551
      15.00000      98592.70      94706.40      0.041036
      18.00000      99109.00      94706.40      0.046487
      21.00000      96900.40      94706.40      0.023167
      24.00000      94122.30      94706.40      -0.006167
      27.00000      96919.40      94706.40      0.023367
      30.00000      91074.00      94706.40      -0.038353
      33.00000      89103.50      94706.40      -0.059160
      36.00000      89482.20      94706.40      -0.055162
      39.00000      94333.50      94706.40      -0.003937
      42.00000      92495.20      94706.40      -0.023348
      45.00000      98818.40      94706.40      0.043419
      48.00000      101529.00      94706.40      0.072043
      51.00000      106021.00      94706.40      0.119467
      54.00000      102558.00      94706.40      0.082907
      57.00000      101494.00      94706.40      0.071672
      60.00000      99173.10      94706.40      0.047164
      63.00000      96071.80      94706.40      0.014417
      66.00000      96321.00      94706.40      0.017049
      69.00000      95116.10      94706.40      0.004327
      72.00000      95182.30      94706.40      0.005025
      75.00000      96445.60      94706.40      0.018364
      78.00000      95994.90      94706.40      0.013606
      81.00000      94051.10      94706.40      -0.006919
      84.00000      93814.30      94706.40      -0.009419
      87.00000      97048.60      94706.40      0.024732
      90.00000      98503.80      94706.40      0.040096
      93.00000      97048.60      94706.40      0.024732
      96.00000      93814.30      94706.40      -0.009419
      99.00000      94051.10      94706.40      -0.006919
      102.00000      95994.90      94706.40      0.013606
      105.00000      96445.60      94706.40      0.018364
      108.00000      95182.30      94706.40      0.005025
      111.00000      95116.10      94706.40      0.004327
      114.00000      96321.00      94706.40      0.017049
      117.00000      96071.80      94706.40      0.014417
      120.00000      99173.10      94706.40      0.047164
      123.00000      101494.00      94706.40      0.071672
      126.00000      102558.00      94706.40      0.082907
      129.00000      106021.00      94706.40      0.119467
      132.00000      101529.00      94706.40      0.072043
      135.00000      98818.40      94706.40      0.043419
      138.00000      92495.20      94706.40      -0.023348
      141.00000      94333.50      94706.40      -0.003937
      144.00000      89482.20      94706.40      -0.055162
      147.00000      89103.50      94706.40      -0.059160
      150.00000      91074.00      94706.40      -0.038353
      153.00000      96919.40      94706.40      0.023367
      156.00000      94122.30      94706.40      -0.006167
      159.00000      96900.40      94706.40      0.023167
      162.00000      99109.00      94706.40      0.046487
      165.00000      98592.70      94706.40      0.041036
      168.00000      93896.60      94706.40      -0.008551
      171.00000      95719.80      94706.40      0.010701
      174.00000      95786.20      94706.40      0.011402
      177.00000      97918.60      94706.40      0.033918
      180.00000      97051.70      94706.40      0.024765
      183.00000      97918.60      94706.40      0.033918
      186.00000      95786.20      94706.40      0.011402
      189.00000      95719.80      94706.40      0.010701
      192.00000      93896.60      94706.40      -0.008551
      195.00000      98592.70      94706.40      0.041036
      198.00000      99109.00      94706.40      0.046487
      201.00000      96900.40      94706.40      0.023167
      204.00000      94122.30      94706.40      -0.006167
      207.00000      96919.40      94706.40      0.023367
      210.00000      91074.00      94706.40      -0.038353
      213.00000      89103.50      94706.40      -0.059160
      216.00000      89482.20      94706.40      -0.055162
      219.00000      94333.50      94706.40      -0.003937
      222.00000      92495.20      94706.40      -0.023348
      225.00000      98818.40      94706.40      0.043419
      228.00000      101529.00      94706.40      0.072043
      231.00000      106021.00      94706.40      0.119467
      234.00000      102558.00      94706.40      0.082907
      237.00000      101494.00      94706.40      0.071672
      240.00000      99173.10      94706.40      0.047164
      243.00000      96071.80      94706.40      0.014417
      246.00000      96321.00      94706.40      0.017049
      249.00000      95116.10      94706.40      0.004327
      252.00000      95182.30      94706.40      0.005025
      255.00000      96445.60      94706.40      0.018364
      258.00000      95994.90      94706.40      0.013606
      261.00000      94051.10      94706.40      -0.006919
      264.00000      93814.30      94706.40      -0.009419
      267.00000      97048.60      94706.40      0.024732
      270.00000      98503.80      94706.40      0.040096
      273.00000      97048.60      94706.40      0.024732
      276.00000      93814.30      94706.40      -0.009419
      279.00000      94051.10      94706.40      -0.006919
      282.00000      95994.90      94706.40      0.013606
      285.00000      96445.60      94706.40      0.018364
      288.00000      95182.30      94706.40      0.005025
      291.00000      95116.10      94706.40      0.004327
      294.00000      96321.00      94706.40      0.017049
      297.00000      96071.80      94706.40      0.014417
      300.00000      99173.10      94706.40      0.047164
      303.00000      101494.00      94706.40      0.071672
      306.00000      102558.00      94706.40      0.082907
      309.00000      106021.00      94706.40      0.119467
      312.00000      101529.00      94706.40      0.072043
      315.00000      98818.40      94706.40      0.043419
      318.00000      92495.20      94706.40      -0.023348
      321.00000      94333.50      94706.40      -0.003937
      324.00000      89482.20      94706.40      -0.055162
      327.00000      89103.50      94706.40      -0.059160
      330.00000      91074.00      94706.40      -0.038353
      333.00000      96919.40      94706.40      0.023367
      336.00000      94122.30      94706.40      -0.006167
      339.00000      96900.40      94706.40      0.023167
      342.00000      99109.00      94706.40      0.046487
      345.00000      98592.70      94706.40      0.041036
      348.00000      93896.60      94706.40      -0.008551
      351.00000      95719.80      94706.40      0.010701
      354.00000      95786.20      94706.40      0.011402
      357.00000      97918.60      94706.40      0.033918
      360.00000      97051.70      94706.40      0.024765
       8     120       19.5900     33.2000      1.00000      0.00000
      0.00000      84659.30      94151.40      -0.100817
      3.00000      88714.70      94151.40      -0.057744
      6.00000      89510.30      94151.40      -0.049294
      9.00000      92584.90      94151.40      -0.016638
      12.00000      93201.40      94151.40      -0.010090
      15.00000      94165.50      94151.40      0.000150
      18.00000      94643.20      94151.40      0.005224
      21.00000      92462.40      94151.40      -0.017939
      24.00000      92622.70      94151.40      -0.016237
      27.00000      90238.40      94151.40      -0.041561
      30.00000      90382.10      94151.40      -0.040034
      33.00000      89866.60      94151.40      -0.045509
      36.00000      92711.40      94151.40      -0.015295
      39.00000      93510.20      94151.40      -0.006810
      42.00000      98065.80      94151.40      0.041576
      45.00000      99418.00      94151.40      0.055938
      48.00000      103607.00      94151.40      0.100434
      51.00000      101325.00      94151.40      0.076194
      54.00000      102655.00      94151.40      0.090317
      57.00000      103146.00      94151.40      0.095535
      60.00000      101269.00      94151.40      0.075595
      63.00000      100620.00      94151.40      0.068703
      66.00000      101546.00      94151.40      0.078542
      69.00000      99568.70      94151.40      0.057539
      72.00000      94772.40      94151.40      0.006596
      75.00000      97946.30      94151.40      0.040307
      78.00000      93655.60      94151.40      -0.005265
      81.00000      95702.20      94151.40      0.016472
      84.00000      97868.90      94151.40      0.039484
      87.00000      104193.00      94151.40      0.106659
      90.00000      101928.00      94151.40      0.082598
      93.00000      104193.00      94151.40      0.106659
      96.00000      97868.90      94151.40      0.039484
      99.00000      95702.20      94151.40      0.016472
      102.00000      93655.60      94151.40      -0.005265
      105.00000      97946.30      94151.40      0.040307
      108.00000      94772.40      94151.40      0.006596
      111.00000      99568.70      94151.40      0.057539
      114.00000      101546.00      94151.40      0.078542
      117.00000      100620.00      94151.40      0.068703
      120.00000      101269.00      94151.40      0.075595
      123.00000      103146.00      94151.40      0.095535
      126.00000      102655.00      94151.40      0.090317
      129.00000      101325.00      94151.40      0.076194
      132.00000      103607.00      94151.40      0.100434
      135.00000      99418.00      94151.40      0.055938
      138.00000      98065.80      94151.40      0.041576
      141.00000      93510.20      94151.40      -0.006810
      144.00000      92711.40      94151.40      -0.015295
      147.00000      89866.60      94151.40      -0.045509
      150.00000      90382.10      94151.40      -0.040034
      153.00000      90238.40      94151.40      -0.041561
      156.00000      92622.70      94151.40      -0.016237
      159.00000      92462.40      94151.40      -0.017939
      162.00000      94643.20      94151.40      0.005224
      165.00000      94165.50      94151.40      0.000150
      168.00000      93201.40      94151.40      -0.010090
      171.00000      92584.90      94151.40      -0.016638
      174.00000      89510.30      94151.40      -0.049294
      177.00000      88714.70      94151.40      -0.057744
      180.00000      84659.30      94151.40      -0.100817
      183.00000      88714.70      94151.40      -0.057744
      186.00000      89510.30      94151.40      -0.049294
      189.00000      92584.90      94151.40      -0.016638
      192.00000      93201.40      94151.40      -0.010090
      195.00000      94165.50      94151.40      0.000150
      198.00000      94643.20      94151.40      0.005224
      201.00000      92462.40      94151.40      -0.017939
      204.00000      92622.70      94151.40      -0.016237
      207.00000      90238.40      94151.40      -0.041561
      210.00000      90382.10      94151.40      -0.040034
      213.00000      89866.60      94151.40      -0.045509
      216.00000      92711.40      94151.40      -0.015295
      219.00000      93510.20      94151.40      -0.006810
      222.00000      98065.80      94151.40      0.041576
      225.00000      99418.00      94151.40      0.055938
      228.00000      103607.00      94151.40      0.100434
      231.00000      101325.00      94151.40      0.076194
      234.00000      102655.00      94151.40      0.090317
      237.00000      103146.00      94151.40      0.095535
      240.00000      101269.00      94151.40      0.075595
      243.00000      100620.00      94151.40      0.068703
      246.00000      101546.00      94151.40      0.078542
      249.00000      99568.70      94151.40      0.057539
      252.00000      94772.40      94151.40      0.006596
      255.00000      97946.30      94151.40      0.040307
      258.00000      93655.60      94151.40      -0.005265
      261.00000      95702.20      94151.40      0.016472
      264.00000      97868.90      94151.40      0.039484
      267.00000      104193.00      94151.40      0.106659
      270.00000      101928.00      94151.40      0.082598
      273.00000      104193.00      94151.40      0.106659
      276.00000      97868.90      94151.40      0.039484
      279.00000      95702.20      94151.40      0.016472
      282.00000      93655.60      94151.40      -0.005265
      285.00000      97946.30      94151.40      0.040307
      288.00000      94772.40      94151.40      0.006596
      291.00000      99568.70      94151.40      0.057539
      294.00000      101546.00      94151.40      0.078542
      297.00000      100620.00      94151.40      0.068703
      300.00000      101269.00      94151.40      0.075595
      303.00000      103146.00      94151.40      0.095535
      306.00000      102655.00      94151.40      0.090317
      309.00000      101325.00      94151.40      0.076194
      312.00000      103607.00      94151.40      0.100434
      315.00000      99418.00      94151.40      0.055938
      318.00000      98065.80      94151.40      0.041576
      321.00000      93510.20      94151.40      -0.006810
      324.00000      92711.40      94151.40      -0.015295
      327.00000      89866.60      94151.40      -0.045509
      330.00000      90382.10      94151.40      -0.040034
      333.00000      90238.40      94151.40      -0.041561
      336.00000      92622.70      94151.40      -0.016237
      339.00000      92462.40      94151.40      -0.017939
      342.00000      94643.20      94151.40      0.005224
      345.00000      94165.50      94151.40      0.000150
      348.00000      93201.40      94151.40      -0.010090
      351.00000      92584.90      94151.40      -0.016638
      354.00000      89510.30      94151.40      -0.049294
      357.00000      88714.70      94151.40      -0.057744
      360.00000      84659.30      94151.40      -0.100817
       9     120       19.5900     36.2000      1.00000      0.00000
      0.00000      73124.70      79258.90      -0.077394
      3.00000      77509.50      79258.90      -0.022072
      6.00000      75823.40      79258.90      -0.043345
      9.00000      76470.60      79258.90      -0.035179
      12.00000      76231.90      79258.90      -0.038191
      15.00000      74482.10      79258.90      -0.060268
      18.00000      71000.20      79258.90      -0.104199
      21.00000      70128.80      79258.90      -0.115194
      24.00000      69832.80      79258.90      -0.118928
      27.00000      70894.50      79258.90      -0.105532
      30.00000      74020.80      79258.90      -0.066088
      33.00000      78573.90      79258.90      -0.008642
      36.00000      81559.10      79258.90      0.029022
      39.00000      84519.80      79258.90      0.066376
      42.00000      86470.10      79258.90      0.090984
      45.00000      88303.00      79258.90      0.114108
      48.00000      89214.70      79258.90      0.125612
      51.00000      87691.20      79258.90      0.106389
      54.00000      87093.80      79258.90      0.098852
      57.00000      86782.10      79258.90      0.094919
      60.00000      85754.00      79258.90      0.081948
      63.00000      85072.00      79258.90      0.073344
      66.00000      85418.40      79258.90      0.077714
      69.00000      83960.70      79258.90      0.059323
      72.00000      81394.80      79258.90      0.026949
      75.00000      80739.80      79258.90      0.018685
      78.00000      78528.30      79258.90      -0.009217
      81.00000      77248.60      79258.90      -0.025363
      84.00000      78181.10      79258.90      -0.013598
      87.00000      80209.70      79258.90      0.011996
      90.00000      79573.20      79258.90      0.003966
      93.00000      80209.70      79258.90      0.011996
      96.00000      78181.10      79258.90      -0.013598
      99.00000      77248.60      79258.90      -0.025363
      102.00000      78528.30      79258.90      -0.009217
      105.00000      80739.80      79258.90      0.018685
      108.00000      81394.80      79258.90      0.026949
      111.00000      83960.70      79258.90      0.059323
      114.00000      85418.40      79258.90      0.077714
      117.00000      85072.00      79258.90      0.073344
      120.00000      85754.00      79258.90      0.081948
      123.00000      86782.10      79258.90      0.094919
      126.00000      87093.80      79258.90      0.098852
      129.00000      87691.20      79258.90      0.106389
      132.00000      89214.70      79258.90      0.125612
      135.00000      88303.00      79258.90      0.114108
      138.00000      86470.10      79258.90      0.090984
      141.00000      84519.80      79258.90      0.066376
      144.00000      81559.10      79258.90      0.029022
      147.00000      78573.90      79258.90      -0.008642
      150.00000      74020.80      79258.90      -0.066088
      153.00000      70894.50      79258.90      -0.105532
      156.00000      69832.80      79258.90      -0.118928
      159.00000      70128.80      79258.90      -0.115194
      162.00000      71000.20      79258.90      -0.104199
      165.00000      74482.10      79258.90      -0.060268
      168.00000      76231.90      79258.90      -0.038191
      171.00000      76470.60      79258.90      -0.035179
      174.00000      75823.40      79258.90      -0.043345
      177.00000      77509.50      79258.90      -0.022072
      180.00000      73124.70      79258.90      -0.077394
      183.00000      77509.50      79258.90      -0.022072
      186.00000      75823.40      79258.90      -0.043345
      189.00000      76470.60      79258.90      -0.035179
      192.00000      76231.90      79258.90      -0.038191
      195.00000      74482.10      79258.90      -0.060268
      198.00000      71000.20      79258.90      -0.104199
      201.00000      70128.80      79258.90      -0.115194
      204.00000      69832.80      79258.90      -0.118928
      207.00000      70894.50      79258.90      -0.105532
      210.00000      74020.80      79258.90      -0.066088
      213.00000      78573.90      79258.90      -0.008642
      216.00000      81559.10      79258.90      0.029022
      219.00000      84519.80      79258.90      0.066376
      222.00000      86470.10      79258.90      0.090984
      225.00000      88303.00      79258.90      0.114108
      228.00000      89214.70      79258.90      0.125612
      231.00000      87691.20      79258.90      0.106389
      234.00000      87093.80      79258.90      0.098852
      237.00000      86782.10      79258.90      0.094919
      240.00000      85754.00      79258.90      0.081948
      243.00000      85072.00      79258.90      0.073344
      246.00000      85418.40      79258.90      0.077714
      249.00000      83960.70      79258.90      0.059323
      252.00000      81394.80      79258.90      0.026949
      255.00000      80739.80      79258.90      0.018685
      258.00000      78528.30      79258.90      -0.009217
      261.00000      77248.60      79258.90      -0.025363
      264.00000      78181.10      79258.90      -0.013598
      267.00000      80209.70      79258.90      0.011996
      270.00000      79573.20      79258.90      0.003966
      273.00000      80209.70      79258.90      0.011996
      276.00000      78181.10      79258.90      -0.013598
      279.00000      77248.60      79258.90      -0.025363
      282.00000      78528.30      79258.90      -0.009217
      285.00000      80739.80      79258.90      0.018685
      288.00000      81394.80      79258.90      0.026949
      291.00000      83960.70      79258.90      0.059323
      294.00000      85418.40      79258.90      0.077714
      297.00000      85072.00      79258.90      0.073344
      300.00000      85754.00      79258.90      0.081948
      303.00000      86782.10      79258.90      0.094919
      306.00000      87093.80      79258.90      0.098852
      309.00000      87691.20      79258.90      0.106389
      312.00000      89214.70      79258.90      0.125612
      315.00000      88303.00      79258.90      0.114108
      318.00000      86470.10      79258.90      0.090984
      321.00000      84519.80      79258.90      0.066376
      324.00000      81559.10      79258.90      0.029022
      327.00000      78573.90      79258.90      -0.008642
      330.00000      74020.80      79258.90      -0.066088
      333.00000      70894.50      79258.90      -0.105532
      336.00000      69832.80      79258.90      -0.118928
      339.00000      70128.80      79258.90      -0.115194
      342.00000      71000.20      79258.90      -0.104199
      345.00000      74482.10      79258.90      -0.060268
      348.00000      76231.90      79258.90      -0.038191
      351.00000      76470.60      79258.90      -0.035179
      354.00000      75823.40      79258.90      -0.043345
      357.00000      77509.50      79258.90      -0.022072
      360.00000      73124.70      79258.90      -0.077394
       10     120       19.5900     39.2000      1.00000      0.00000
      0.00000      68744.30      79875.00      -0.139351
      3.00000      69691.60      79875.00      -0.127491
      6.00000      71577.10      79875.00      -0.103886
      9.00000      73436.90      79875.00      -0.080602
      12.00000      75476.00      79875.00      -0.055073
      15.00000      72392.70      79875.00      -0.093675
      18.00000      71515.90      79875.00      -0.104652
      21.00000      72953.20      79875.00      -0.086658
      24.00000      72121.00      79875.00      -0.097077
      27.00000      75789.60      79875.00      -0.051147
      30.00000      78563.00      79875.00      -0.016427
      33.00000      81814.60      79875.00      0.024283
      36.00000      83112.70      79875.00      0.040534
      39.00000      87217.90      79875.00      0.091930
      42.00000      87918.40      79875.00      0.100700
      45.00000      91621.70      79875.00      0.147063
      48.00000      93618.80      79875.00      0.172066
      51.00000      94933.30      79875.00      0.188523
      54.00000      95314.90      79875.00      0.193301
      57.00000      95090.20      79875.00      0.190487
      60.00000      92456.80      79875.00      0.157518
      63.00000      91741.80      79875.00      0.148567
      66.00000      89637.50      79875.00      0.122222
      69.00000      86095.60      79875.00      0.077879
      72.00000      84047.20      79875.00      0.052235
      75.00000      83558.30      79875.00      0.046113
      78.00000      79695.60      79875.00      -0.002247
      81.00000      77950.50      79875.00      -0.024094
      84.00000      77938.90      79875.00      -0.024239
      87.00000      77899.00      79875.00      -0.024739
      90.00000      79146.50      79875.00      -0.009121
      93.00000      77899.00      79875.00      -0.024739
      96.00000      77938.90      79875.00      -0.024239
      99.00000      77950.50      79875.00      -0.024094
      102.00000      79695.60      79875.00      -0.002247
      105.00000      83558.30      79875.00      0.046113
      108.00000      84047.20      79875.00      0.052235
      111.00000      86095.60      79875.00      0.077879
      114.00000      89637.50      79875.00      0.122222
      117.00000      91741.80      79875.00      0.148567
      120.00000      92456.80      79875.00      0.157518
      123.00000      95090.20      79875.00      0.190487
      126.00000      95314.90      79875.00      0.193301
      129.00000      94933.30      79875.00      0.188523
      132.00000      93618.80      79875.00      0.172066
      135.00000      91621.70      79875.00      0.147063
      138.00000      87918.40      79875.00      0.100700
      141.00000      87217.90      79875.00      0.091930
      144.00000      83112.70      79875.00      0.040534
      147.00000      81814.60      79875.00      0.024283
      150.00000      78563.00      79875.00      -0.016427
      153.00000      75789.60      79875.00      -0.051147
      156.00000      72121.00      79875.00      -0.097077
      159.00000      72953.20      79875.00      -0.086658
      162.00000      71515.90      79875.00      -0.104652
      165.00000      72392.70      79875.00      -0.093675
      168.00000      75476.00      79875.00      -0.055073
      171.00000      73436.90      79875.00      -0.080602
      174.00000      71577.10      79875.00      -0.103886
      177.00000      69691.60      79875.00      -0.127491
      180.00000      68744.30      79875.00      -0.139351
      183.00000      69691.60      79875.00      -0.127491
      186.00000      71577.10      79875.00      -0.103886
      189.00000      73436.90      79875.00      -0.080602
      192.00000      75476.00      79875.00      -0.055073
      195.00000      72392.70      79875.00      -0.093675
      198.00000      71515.90      79875.00      -0.104652
      201.00000      72953.20      79875.00      -0.086658
      204.00000      72121.00      79875.00      -0.097077
      207.00000      75789.60      79875.00      -0.051147
      210.00000      78563.00      79875.00      -0.016427
      213.00000      81814.60      79875.00      0.024283
      216.00000      83112.70      79875.00      0.040534
      219.00000      87217.90      79875.00      0.091930
      222.00000      87918.40      79875.00      0.100700
      225.00000      91621.70      79875.00      0.147063
      228.00000      93618.80      79875.00      0.172066
      231.00000      94933.30      79875.00      0.188523
      234.00000      95314.90      79875.00      0.193301
      237.00000      95090.20      79875.00      0.190487
      240.00000      92456.80      79875.00      0.157518
      243.00000      91741.80      79875.00      0.148567
      246.00000      89637.50      79875.00      0.122222
      249.00000      86095.60      79875.00      0.077879
      252.00000      84047.20      79875.00      0.052235
      255.00000      83558.30      79875.00      0.046113
      258.00000      79695.60      79875.00      -0.002247
      261.00000      77950.50      79875.00      -0.024094
      264.00000      77938.90      79875.00      -0.024239
      267.00000      77899.00      79875.00      -0.024739
      270.00000      79146.50      79875.00      -0.009121
      273.00000      77899.00      79875.00      -0.024739
      276.00000      77938.90      79875.00      -0.024239
      279.00000      77950.50      79875.00      -0.024094
      282.00000      79695.60      79875.00      -0.002247
      285.00000      83558.30      79875.00      0.046113
      288.00000      84047.20      79875.00      0.052235
      291.00000      86095.60      79875.00      0.077879
      294.00000      89637.50      79875.00      0.122222
      297.00000      91741.80      79875.00      0.148567
      300.00000      92456.80      79875.00      0.157518
      303.00000      95090.20      79875.00      0.190487
      306.00000      95314.90      79875.00      0.193301
      309.00000      94933.30      79875.00      0.188523
      312.00000      93618.80      79875.00      0.172066
      315.00000      91621.70      79875.00      0.147063
      318.00000      87918.40      79875.00      0.100700
      321.00000      87217.90      79875.00      0.091930
      324.00000      83112.70      79875.00      0.040534
      327.00000      81814.60      79875.00      0.024283
      330.00000      78563.00      79875.00      -0.016427
      333.00000      75789.60      79875.00      -0.051147
      336.00000      72121.00      79875.00      -0.097077
      339.00000      72953.20      79875.00      -0.086658
      342.00000      71515.90      79875.00      -0.104652
      345.00000      72392.70      79875.00      -0.093675
      348.00000      75476.00      79875.00      -0.055073
      351.00000      73436.90      79875.00      -0.080602
      354.00000      71577.10      79875.00      -0.103886
      357.00000      69691.60      79875.00      -0.127491
      360.00000      68744.30      79875.00      -0.139351
       11     120       19.5900     42.2000      1.00000      0.00000
      0.00000      60807.90      73846.40      -0.176562
      3.00000      66413.90      73846.40      -0.100649
      6.00000      63678.90      73846.40      -0.137685
      9.00000      64197.20      73846.40      -0.130666
      12.00000      63076.60      73846.40      -0.145840
      15.00000      61836.80      73846.40      -0.162630
      18.00000      61521.20      73846.40      -0.166904
      21.00000      62514.40      73846.40      -0.153453
      24.00000      64832.50      73846.40      -0.122063
      27.00000      67958.10      73846.40      -0.079738
      30.00000      69800.40      73846.40      -0.054790
      33.00000      71728.00      73846.40      -0.028687
      36.00000      74903.00      73846.40      0.014309
      39.00000      78943.50      73846.40      0.069023
      42.00000      82244.40      73846.40      0.113722
      45.00000      85720.30      73846.40      0.160791
      48.00000      88683.90      73846.40      0.200923
      51.00000      92025.00      73846.40      0.246167
      54.00000      91623.80      73846.40      0.240734
      57.00000      89791.50      73846.40      0.215922
      60.00000      87583.80      73846.40      0.186027
      63.00000      85296.70      73846.40      0.155055
      66.00000      80607.50      73846.40      0.091557
      69.00000      78531.50      73846.40      0.063444
      72.00000      77259.90      73846.40      0.046224
      75.00000      77318.90      73846.40      0.047024
      78.00000      76363.70      73846.40      0.034089
      81.00000      75811.90      73846.40      0.026616
      84.00000      74449.20      73846.40      0.008162
      87.00000      73826.20      73846.40      -0.000273
      90.00000      74106.30      73846.40      0.003519
      93.00000      73826.20      73846.40      -0.000273
      96.00000      74449.20      73846.40      0.008162
      99.00000      75811.90      73846.40      0.026616
      102.00000      76363.70      73846.40      0.034089
      105.00000      77318.90      73846.40      0.047024
      108.00000      77259.90      73846.40      0.046224
      111.00000      78531.50      73846.40      0.063444
      114.00000      80607.50      73846.40      0.091557
      117.00000      85296.70      73846.40      0.155055
      120.00000      87583.80      73846.40      0.186027
      123.00000      89791.50      73846.40      0.215922
      126.00000      91623.80      73846.40      0.240734
      129.00000      92025.00      73846.40      0.246167
      132.00000      88683.90      73846.40      0.200923
      135.00000      85720.30      73846.40      0.160791
      138.00000      82244.40      73846.40      0.113722
      141.00000      78943.50      73846.40      0.069023
      144.00000      74903.00      73846.40      0.014309
      147.00000      71728.00      73846.40      -0.028687
      150.00000      69800.40      73846.40      -0.054790
      153.00000      67958.10      73846.40      -0.079738
      156.00000      64832.50      73846.40      -0.122063
      159.00000      62514.40      73846.40      -0.153453
      162.00000      61521.20      73846.40      -0.166904
      165.00000      61836.80      73846.40      -0.162630
      168.00000      63076.60      73846.40      -0.145840
      171.00000      64197.20      73846.40      -0.130666
      174.00000      63678.90      73846.40      -0.137685
      177.00000      66413.90      73846.40      -0.100649
      180.00000      60807.90      73846.40      -0.176562
      183.00000      66413.90      73846.40      -0.100649
      186.00000      63678.90      73846.40      -0.137685
      189.00000      64197.20      73846.40      -0.130666
      192.00000      63076.60      73846.40      -0.145840
      195.00000      61836.80      73846.40      -0.162630
      198.00000      61521.20      73846.40      -0.166904
      201.00000      62514.40      73846.40      -0.153453
      204.00000      64832.50      73846.40      -0.122063
      207.00000      67958.10      73846.40      -0.079738
      210.00000      69800.40      73846.40      -0.054790
      213.00000      71728.00      73846.40      -0.028687
      216.00000      74903.00      73846.40      0.014309
      219.00000      78943.50      73846.40      0.069023
      222.00000      82244.40      73846.40      0.113722
      225.00000      85720.30      73846.40      0.160791
      228.00000      88683.90      73846.40      0.200923
      231.00000      92025.00      73846.40      0.246167
      234.00000      91623.80      73846.40      0.240734
      237.00000      89791.50      73846.40      0.215922
      240.00000      87583.80      73846.40      0.186027
      243.00000      85296.70      73846.40      0.155055
      246.00000      80607.50      73846.40      0.091557
      249.00000      78531.50      73846.40      0.063444
      252.00000      77259.90      73846.40      0.046224
      255.00000      77318.90      73846.40      0.047024
      258.00000      76363.70      73846.40      0.034089
      261.00000      75811.90      73846.40      0.026616
      264.00000      74449.20      73846.40      0.008162
      267.00000      73826.20      73846.40      -0.000273
      270.00000      74106.30      73846.40      0.003519
      273.00000      73826.20      73846.40      -0.000273
      276.00000      74449.20      73846.40      0.008162
      279.00000      75811.90      73846.40      0.026616
      282.00000      76363.70      73846.40      0.034089
      285.00000      77318.90      73846.40      0.047024
      288.00000      77259.90      73846.40      0.046224
      291.00000      78531.50      73846.40      0.063444
      294.00000      80607.50      73846.40      0.091557
      297.00000      85296.70      73846.40      0.155055
      300.00000      87583.80      73846.40      0.186027
      303.00000      89791.50      73846.40      0.215922
      306.00000      91623.80      73846.40      0.240734
      309.00000      92025.00      73846.40      0.246167
      312.00000      88683.90      73846.40      0.200923
      315.00000      85720.30      73846.40      0.160791
      318.00000      82244.40      73846.40      0.113722
      321.00000      78943.50      73846.40      0.069023
      324.00000      74903.00      73846.40      0.014309
      327.00000      71728.00      73846.40      -0.028687
      330.00000      69800.40      73846.40      -0.054790
      333.00000      67958.10      73846.40      -0.079738
      336.00000      64832.50      73846.40      -0.122063
      339.00000      62514.40      73846.40      -0.153453
      342.00000      61521.20      73846.40      -0.166904
      345.00000      61836.80      73846.40      -0.162630
      348.00000      63076.60      73846.40      -0.145840
      351.00000      64197.20      73846.40      -0.130666
      354.00000      63678.90      73846.40      -0.137685
      357.00000      66413.90      73846.40      -0.100649
      360.00000      60807.90      73846.40      -0.176562
       12     120       19.5900     45.2000      1.00000      0.00000
      0.00000      58421.90      72734.50      -0.196779
      3.00000      64535.20      72734.50      -0.112730
      6.00000      65034.60      72734.50      -0.105864
      9.00000      66056.60      72734.50      -0.091813
      12.00000      66050.60      72734.50      -0.091896
      15.00000      65991.90      72734.50      -0.092702
      18.00000      67376.90      72734.50      -0.073660
      21.00000      67895.10      72734.50      -0.066535
      24.00000      69745.70      72734.50      -0.041093
      27.00000      69296.20      72734.50      -0.047272
      30.00000      70372.70      72734.50      -0.032473
      33.00000      70970.90      72734.50      -0.024248
      36.00000      72300.80      72734.50      -0.005963
      39.00000      74595.00      72734.50      0.025578
      42.00000      78671.20      72734.50      0.081621
      45.00000      82158.30      72734.50      0.129564
      48.00000      83690.70      72734.50      0.150633
      51.00000      85151.70      72734.50      0.170719
      54.00000      84962.40      72734.50      0.168116
      57.00000      83640.40      72734.50      0.149941
      60.00000      78429.00      72734.50      0.078291
      63.00000      78557.20      72734.50      0.080053
      66.00000      76418.00      72734.50      0.050642
      69.00000      75963.20      72734.50      0.044390
      72.00000      76908.40      72734.50      0.057384
      75.00000      80232.10      72734.50      0.103081
      78.00000      79359.10      72734.50      0.091078
      81.00000      80805.90      72734.50      0.110970
      84.00000      81419.10      72734.50      0.119401
      87.00000      80952.80      72734.50      0.112990
      90.00000      81314.40      72734.50      0.117961
      93.00000      80952.80      72734.50      0.112990
      96.00000      81419.10      72734.50      0.119401
      99.00000      80805.90      72734.50      0.110970
      102.00000      79359.10      72734.50      0.091078
      105.00000      80232.10      72734.50      0.103081
      108.00000      76908.40      72734.50      0.057384
      111.00000      75963.20      72734.50      0.044390
      114.00000      76418.00      72734.50      0.050642
      117.00000      78557.20      72734.50      0.080053
      120.00000      78429.00      72734.50      0.078291
      123.00000      83640.40      72734.50      0.149941
      126.00000      84962.40      72734.50      0.168116
      129.00000      85151.70      72734.50      0.170719
      132.00000      83690.70      72734.50      0.150633
      135.00000      82158.30      72734.50      0.129564
      138.00000      78671.20      72734.50      0.081621
      141.00000      74595.00      72734.50      0.025578
      144.00000      72300.80      72734.50      -0.005963
      147.00000      70970.90      72734.50      -0.024248
      150.00000      70372.70      72734.50      -0.032473
      153.00000      69296.20      72734.50      -0.047272
      156.00000      69745.70      72734.50      -0.041093
      159.00000      67895.10      72734.50      -0.066535
      162.00000      67376.90      72734.50      -0.073660
      165.00000      65991.90      72734.50      -0.092702
      168.00000      66050.60      72734.50      -0.091896
      171.00000      66056.60      72734.50      -0.091813
      174.00000      65034.60      72734.50      -0.105864
      177.00000      64535.20      72734.50      -0.112730
      180.00000      58421.90      72734.50      -0.196779
      183.00000      64535.20      72734.50      -0.112730
      186.00000      65034.60      72734.50      -0.105864
      189.00000      66056.60      72734.50      -0.091813
      192.00000      66050.60      72734.50      -0.091896
      195.00000      65991.90      72734.50      -0.092702
      198.00000      67376.90      72734.50      -0.073660
      201.00000      67895.10      72734.50      -0.066535
      204.00000      69745.70      72734.50      -0.041093
      207.00000      69296.20      72734.50      -0.047272
      210.00000      70372.70      72734.50      -0.032473
      213.00000      70970.90      72734.50      -0.024248
      216.00000      72300.80      72734.50      -0.005963
      219.00000      74595.00      72734.50      0.025578
      222.00000      78671.20      72734.50      0.081621
      225.00000      82158.30      72734.50      0.129564
      228.00000      83690.70      72734.50      0.150633
      231.00000      85151.70      72734.50      0.170719
      234.00000      84962.40      72734.50      0.168116
      237.00000      83640.40      72734.50      0.149941
      240.00000      78429.00      72734.50      0.078291
      243.00000      78557.20      72734.50      0.080053
      246.00000      76418.00      72734.50      0.050642
      249.00000      75963.20      72734.50      0.044390
      252.00000      76908.40      72734.50      0.057384
      255.00000      80232.10      72734.50      0.103081
      258.00000      79359.10      72734.50      0.091078
      261.00000      80805.90      72734.50      0.110970
      264.00000      81419.10      72734.50      0.119401
      267.00000      80952.80      72734.50      0.112990
      270.00000      81314.40      72734.50      0.117961
      273.00000      80952.80      72734.50      0.112990
      276.00000      81419.10      72734.50      0.119401
      279.00000      80805.90      72734.50      0.110970
      282.00000      79359.10      72734.50      0.091078
      285.00000      80232.10      72734.50      0.103081
      288.00000      76908.40      72734.50      0.057384
      291.00000      75963.20      72734.50      0.044390
      294.00000      76418.00      72734.50      0.050642
      297.00000      78557.20      72734.50      0.080053
      300.00000      78429.00      72734.50      0.078291
      303.00000      83640.40      72734.50      0.149941
      306.00000      84962.40      72734.50      0.168116
      309.00000      85151.70      72734.50      0.170719
      312.00000      83690.70      72734.50      0.150633
      315.00000      82158.30      72734.50      0.129564
      318.00000      78671.20      72734.50      0.081621
      321.00000      74595.00      72734.50      0.025578
      324.00000      72300.80      72734.50      -0.005963
      327.00000      70970.90      72734.50      -0.024248
      330.00000      70372.70      72734.50      -0.032473
      333.00000      69296.20      72734.50      -0.047272
      336.00000      69745.70      72734.50      -0.041093
      339.00000      67895.10      72734.50      -0.066535
      342.00000      67376.90      72734.50      -0.073660
      345.00000      65991.90      72734.50      -0.092702
      348.00000      66050.60      72734.50      -0.091896
      351.00000      66056.60      72734.50      -0.091813
      354.00000      65034.60      72734.50      -0.105864
      357.00000      64535.20      72734.50      -0.112730
      360.00000      58421.90      72734.50      -0.196779
       13     120       19.5900     48.2000      1.00000      0.00000
      0.00000      62273.20      69678.30      -0.106276
      3.00000      62931.60      69678.30      -0.096826
      6.00000      66929.20      69678.30      -0.039455
      9.00000      67857.50      69678.30      -0.026131
      12.00000      68631.20      69678.30      -0.015028
      15.00000      68510.00      69678.30      -0.016767
      18.00000      67079.70      69678.30      -0.037294
      21.00000      66228.50      69678.30      -0.049510
      24.00000      67434.40      69678.30      -0.032204
      27.00000      67468.40      69678.30      -0.031715
      30.00000      66490.50      69678.30      -0.045750
      33.00000      66619.80      69678.30      -0.043894
      36.00000      67778.80      69678.30      -0.027261
      39.00000      66572.30      69678.30      -0.044576
      42.00000      67913.30      69678.30      -0.025330
      45.00000      71579.50      69678.30      0.027286
      48.00000      71416.30      69678.30      0.024944
      51.00000      70649.50      69678.30      0.013939
      54.00000      72579.40      69678.30      0.041636
      57.00000      73825.60      69678.30      0.059521
      60.00000      72089.60      69678.30      0.034606
      63.00000      73580.00      69678.30      0.055997
      66.00000      72800.30      69678.30      0.044806
      69.00000      71964.00      69678.30      0.032804
      72.00000      70501.80      69678.30      0.011818
      75.00000      71119.90      69678.30      0.020689
      78.00000      70566.80      69678.30      0.012752
      81.00000      73402.50      69678.30      0.053449
      84.00000      75650.70      69678.30      0.085714
      87.00000      78254.90      69678.30      0.123089
      90.00000      81758.60      69678.30      0.173373
      93.00000      78254.90      69678.30      0.123089
      96.00000      75650.70      69678.30      0.085714
      99.00000      73402.50      69678.30      0.053449
      102.00000      70566.80      69678.30      0.012752
      105.00000      71119.90      69678.30      0.020689
      108.00000      70501.80      69678.30      0.011818
      111.00000      71964.00      69678.30      0.032804
      114.00000      72800.30      69678.30      0.044806
      117.00000      73580.00      69678.30      0.055997
      120.00000      72089.60      69678.30      0.034606
      123.00000      73825.60      69678.30      0.059521
      126.00000      72579.40      69678.30      0.041636
      129.00000      70649.50      69678.30      0.013939
      132.00000      71416.30      69678.30      0.024944
      135.00000      71579.50      69678.30      0.027286
      138.00000      67913.30      69678.30      -0.025330
      141.00000      66572.30      69678.30      -0.044576
      144.00000      67778.80      69678.30      -0.027261
      147.00000      66619.80      69678.30      -0.043894
      150.00000      66490.50      69678.30      -0.045750
      153.00000      67468.40      69678.30      -0.031715
      156.00000      67434.40      69678.30      -0.032204
      159.00000      66228.50      69678.30      -0.049510
      162.00000      67079.70      69678.30      -0.037294
      165.00000      68510.00      69678.30      -0.016767
      168.00000      68631.20      69678.30      -0.015028
      171.00000      67857.50      69678.30      -0.026131
      174.00000      66929.20      69678.30      -0.039455
      177.00000      62931.60      69678.30      -0.096826
      180.00000      62273.20      69678.30      -0.106276
      183.00000      62931.60      69678.30      -0.096826
      186.00000      66929.20      69678.30      -0.039455
      189.00000      67857.50      69678.30      -0.026131
      192.00000      68631.20      69678.30      -0.015028
      195.00000      68510.00      69678.30      -0.016767
      198.00000      67079.70      69678.30      -0.037294
      201.00000      66228.50      69678.30      -0.049510
      204.00000      67434.40      69678.30      -0.032204
      207.00000      67468.40      69678.30      -0.031715
      210.00000      66490.50      69678.30      -0.045750
      213.00000      66619.80      69678.30      -0.043894
      216.00000      67778.80      69678.30      -0.027261
      219.00000      66572.30      69678.30      -0.044576
      222.00000      67913.30      69678.30      -0.025330
      225.00000      71579.50      69678.30      0.027286
      228.00000      71416.30      69678.30      0.024944
      231.00000      70649.50      69678.30      0.013939
      234.00000      72579.40      69678.30      0.041636
      237.00000      73825.60      69678.30      0.059521
      240.00000      72089.60      69678.30      0.034606
      243.00000      73580.00      69678.30      0.055997
      246.00000      72800.30      69678.30      0.044806
      249.00000      71964.00      69678.30      0.032804
      252.00000      70501.80      69678.30      0.011818
      255.00000      71119.90      69678.30      0.020689
      258.00000      70566.80      69678.30      0.012752
      261.00000      73402.50      69678.30      0.053449
      264.00000      75650.70      69678.30      0.085714
      267.00000      78254.90      69678.30      0.123089
      270.00000      81758.60      69678.30      0.173373
      273.00000      78254.90      69678.30      0.123089
      276.00000      75650.70      69678.30      0.085714
      279.00000      73402.50      69678.30      0.053449
      282.00000      70566.80      69678.30      0.012752
      285.00000      71119.90      69678.30      0.020689
      288.00000      70501.80      69678.30      0.011818
      291.00000      71964.00      69678.30      0.032804
      294.00000      72800.30      69678.30      0.044806
      297.00000      73580.00      69678.30      0.055997
      300.00000      72089.60      69678.30      0.034606
      303.00000      73825.60      69678.30      0.059521
      306.00000      72579.40      69678.30      0.041636
      309.00000      70649.50      69678.30      0.013939
      312.00000      71416.30      69678.30      0.024944
      315.00000      71579.50      69678.30      0.027286
      318.00000      67913.30      69678.30      -0.025330
      321.00000      66572.30      69678.30      -0.044576
      324.00000      67778.80      69678.30      -0.027261
      327.00000      66619.80      69678.30      -0.043894
      330.00000      66490.50      69678.30      -0.045750
      333.00000      67468.40      69678.30      -0.031715
      336.00000      67434.40      69678.30      -0.032204
      339.00000      66228.50      69678.30      -0.049510
      342.00000      67079.70      69678.30      -0.037294
      345.00000      68510.00      69678.30      -0.016767
      348.00000      68631.20      69678.30      -0.015028
      351.00000      67857.50      69678.30      -0.026131
      354.00000      66929.20      69678.30      -0.039455
      357.00000      62931.60      69678.30      -0.096826
      360.00000      62273.20      69678.30      -0.106276
       14     120       19.5900     51.2000      1.00000      0.00000
      0.00000      53648.90      60328.10      -0.110715
      3.00000      61955.80      60328.10      0.026981
      6.00000      61637.70      60328.10      0.021708
      9.00000      62184.40      60328.10      0.030770
      12.00000      61389.90      60328.10      0.017600
      15.00000      59105.50      60328.10      -0.020265
      18.00000      55641.40      60328.10      -0.077686
      21.00000      54282.10      60328.10      -0.100219
      24.00000      53290.50      60328.10      -0.116655
      27.00000      54363.70      60328.10      -0.098866
      30.00000      54041.40      60328.10      -0.104209
      33.00000      54337.20      60328.10      -0.099305
      36.00000      55949.10      60328.10      -0.072586
      39.00000      58841.10      60328.10      -0.024649
      42.00000      57869.60      60328.10      -0.040752
      45.00000      58454.00      60328.10      -0.031064
      48.00000      59027.60      60328.10      -0.021557
      51.00000      59071.90      60328.10      -0.020822
      54.00000      58750.50      60328.10      -0.026150
      57.00000      60600.70      60328.10      0.004519
      60.00000      61532.60      60328.10      0.019967
      63.00000      64515.10      60328.10      0.069404
      66.00000      65108.70      60328.10      0.079244
      69.00000      63957.20      60328.10      0.060156
      72.00000      64314.40      60328.10      0.066077
      75.00000      64316.10      60328.10      0.066105
      78.00000      63093.80      60328.10      0.045845
      81.00000      62751.80      60328.10      0.040176
      84.00000      66211.70      60328.10      0.097527
      87.00000      66913.90      60328.10      0.109167
      90.00000      71521.30      60328.10      0.185539
      93.00000      66913.90      60328.10      0.109167
      96.00000      66211.70      60328.10      0.097527
      99.00000      62751.80      60328.10      0.040176
      102.00000      63093.80      60328.10      0.045845
      105.00000      64316.10      60328.10      0.066105
      108.00000      64314.40      60328.10      0.066077
      111.00000      63957.20      60328.10      0.060156
      114.00000      65108.70      60328.10      0.079244
      117.00000      64515.10      60328.10      0.069404
      120.00000      61532.60      60328.10      0.019967
      123.00000      60600.70      60328.10      0.004519
      126.00000      58750.50      60328.10      -0.026150
      129.00000      59071.90      60328.10      -0.020822
      132.00000      59027.60      60328.10      -0.021557
      135.00000      58454.00      60328.10      -0.031064
      138.00000      57869.60      60328.10      -0.040752
      141.00000      58841.10      60328.10      -0.024649
      144.00000      55949.10      60328.10      -0.072586
      147.00000      54337.20      60328.10      -0.099305
      150.00000      54041.40      60328.10      -0.104209
      153.00000      54363.70      60328.10      -0.098866
      156.00000      53290.50      60328.10      -0.116655
      159.00000      54282.10      60328.10      -0.100219
      162.00000      55641.40      60328.10      -0.077686
      165.00000      59105.50      60328.10      -0.020265
      168.00000      61389.90      60328.10      0.017600
      171.00000      62184.40      60328.10      0.030770
      174.00000      61637.70      60328.10      0.021708
      177.00000      61955.80      60328.10      0.026981
      180.00000      53648.90      60328.10      -0.110715
      183.00000      61955.80      60328.10      0.026981
      186.00000      61637.70      60328.10      0.021708
      189.00000      62184.40      60328.10      0.030770
      192.00000      61389.90      60328.10      0.017600
      195.00000      59105.50      60328.10      -0.020265
      198.00000      55641.40      60328.10      -0.077686
      201.00000      54282.10      60328.10      -0.100219
      204.00000      53290.50      60328.10      -0.116655
      207.00000      54363.70      60328.10      -0.098866
      210.00000      54041.40      60328.10      -0.104209
      213.00000      54337.20      60328.10      -0.099305
      216.00000      55949.10      60328.10      -0.072586
      219.00000      58841.10      60328.10      -0.024649
      222.00000      57869.60      60328.10      -0.040752
      225.00000      58454.00      60328.10      -0.031064
      228.00000      59027.60      60328.10      -0.021557
      231.00000      59071.90      60328.10      -0.020822
      234.00000      58750.50      60328.10      -0.026150
      237.00000      60600.70      60328.10      0.004519
      240.00000      61532.60      60328.10      0.019967
      243.00000      64515.10      60328.10      0.069404
      246.00000      65108.70      60328.10      0.079244
      249.00000      63957.20      60328.10      0.060156
      252.00000      64314.40      60328.10      0.066077
      255.00000      64316.10      60328.10      0.066105
      258.00000      63093.80      60328.10      0.045845
      261.00000      62751.80      60328.10      0.040176
      264.00000      66211.70      60328.10      0.097527
      267.00000      66913.90      60328.10      0.109167
      270.00000      71521.30      60328.10      0.185539
      273.00000      66913.90      60328.10      0.109167
      276.00000      66211.70      60328.10      0.097527
      279.00000      62751.80      60328.10      0.040176
      282.00000      63093.80      60328.10      0.045845
      285.00000      64316.10      60328.10      0.066105
      288.00000      64314.40      60328.10      0.066077
      291.00000      63957.20      60328.10      0.060156
      294.00000      65108.70      60328.10      0.079244
      297.00000      64515.10      60328.10      0.069404
      300.00000      61532.60      60328.10      0.019967
      303.00000      60600.70      60328.10      0.004519
      306.00000      58750.50      60328.10      -0.026150
      309.00000      59071.90      60328.10      -0.020822
      312.00000      59027.60      60328.10      -0.021557
      315.00000      58454.00      60328.10      -0.031064
      318.00000      57869.60      60328.10      -0.040752
      321.00000      58841.10      60328.10      -0.024649
      324.00000      55949.10      60328.10      -0.072586
      327.00000      54337.20      60328.10      -0.099305
      330.00000      54041.40      60328.10      -0.104209
      333.00000      54363.70      60328.10      -0.098866
      336.00000      53290.50      60328.10      -0.116655
      339.00000      54282.10      60328.10      -0.100219
      342.00000      55641.40      60328.10      -0.077686
      345.00000      59105.50      60328.10      -0.020265
      348.00000      61389.90      60328.10      0.017600
      351.00000      62184.40      60328.10      0.030770
      354.00000      61637.70      60328.10      0.021708
      357.00000      61955.80      60328.10      0.026981
      360.00000      53648.90      60328.10      -0.110715
       15     120       19.5900     54.2000      1.00000      0.00000
      0.00000      50526.30      53642.50      -0.058092
      3.00000      55343.60      53642.50      0.031713
      6.00000      55258.90      53642.50      0.030133
      9.00000      55717.20      53642.50      0.038677
      12.00000      53547.20      53642.50      -0.001776
      15.00000      52152.10      53642.50      -0.027785
      18.00000      50716.00      53642.50      -0.054556
      21.00000      47703.00      53642.50      -0.110724
      24.00000      46078.50      53642.50      -0.141007
      27.00000      46355.80      53642.50      -0.135839
      30.00000      45385.60      53642.50      -0.153925
      33.00000      44790.10      53642.50      -0.165026
      36.00000      47510.70      53642.50      -0.114308
      39.00000      50277.90      53642.50      -0.062723
      42.00000      50539.40      53642.50      -0.057847
      45.00000      52687.30      53642.50      -0.017806
      48.00000      54446.60      53642.50      0.014990
      51.00000      55682.20      53642.50      0.038025
      54.00000      55216.70      53642.50      0.029346
      57.00000      55722.10      53642.50      0.038767
      60.00000      56376.80      53642.50      0.050973
      63.00000      57065.20      53642.50      0.063806
      66.00000      55409.90      53642.50      0.032948
      69.00000      56945.40      53642.50      0.061573
      72.00000      56738.90      53642.50      0.057723
      75.00000      55503.80      53642.50      0.034699
      78.00000      54047.80      53642.50      0.007556
      81.00000      55008.10      53642.50      0.025458
      84.00000      57381.30      53642.50      0.069699
      87.00000      61191.50      53642.50      0.140728
      90.00000      64603.90      53642.50      0.204342
      93.00000      61191.50      53642.50      0.140728
      96.00000      57381.30      53642.50      0.069699
      99.00000      55008.10      53642.50      0.025458
      102.00000      54047.80      53642.50      0.007556
      105.00000      55503.80      53642.50      0.034699
      108.00000      56738.90      53642.50      0.057723
      111.00000      56945.40      53642.50      0.061573
      114.00000      55409.90      53642.50      0.032948
      117.00000      57065.20      53642.50      0.063806
      120.00000      56376.80      53642.50      0.050973
      123.00000      55722.10      53642.50      0.038767
      126.00000      55216.70      53642.50      0.029346
      129.00000      55682.20      53642.50      0.038025
      132.00000      54446.60      53642.50      0.014990
      135.00000      52687.30      53642.50      -0.017806
      138.00000      50539.40      53642.50      -0.057847
      141.00000      50277.90      53642.50      -0.062723
      144.00000      47510.70      53642.50      -0.114308
      147.00000      44790.10      53642.50      -0.165026
      150.00000      45385.60      53642.50      -0.153925
      153.00000      46355.80      53642.50      -0.135839
      156.00000      46078.50      53642.50      -0.141007
      159.00000      47703.00      53642.50      -0.110724
      162.00000      50716.00      53642.50      -0.054556
      165.00000      52152.10      53642.50      -0.027785
      168.00000      53547.20      53642.50      -0.001776
      171.00000      55717.20      53642.50      0.038677
      174.00000      55258.90      53642.50      0.030133
      177.00000      55343.60      53642.50      0.031713
      180.00000      50526.30      53642.50      -0.058092
      183.00000      55343.60      53642.50      0.031713
      186.00000      55258.90      53642.50      0.030133
      189.00000      55717.20      53642.50      0.038677
      192.00000      53547.20      53642.50      -0.001776
      195.00000      52152.10      53642.50      -0.027785
      198.00000      50716.00      53642.50      -0.054556
      201.00000      47703.00      53642.50      -0.110724
      204.00000      46078.50      53642.50      -0.141007
      207.00000      46355.80      53642.50      -0.135839
      210.00000      45385.60      53642.50      -0.153925
      213.00000      44790.10      53642.50      -0.165026
      216.00000      47510.70      53642.50      -0.114308
      219.00000      50277.90      53642.50      -0.062723
      222.00000      50539.40      53642.50      -0.057847
      225.00000      52687.30      53642.50      -0.017806
      228.00000      54446.60      53642.50      0.014990
      231.00000      55682.20      53642.50      0.038025
      234.00000      55216.70      53642.50      0.029346
      237.00000      55722.10      53642.50      0.038767
      240.00000      56376.80      53642.50      0.050973
      243.00000      57065.20      53642.50      0.063806
      246.00000      55409.90      53642.50      0.032948
      249.00000      56945.40      53642.50      0.061573
      252.00000      56738.90      53642.50      0.057723
      255.00000      55503.80      53642.50      0.034699
      258.00000      54047.80      53642.50      0.007556
      261.00000      55008.10      53642.50      0.025458
      264.00000      57381.30      53642.50      0.069699
      267.00000      61191.50      53642.50      0.140728
      270.00000      64603.90      53642.50      0.204342
      273.00000      61191.50      53642.50      0.140728
      276.00000      57381.30      53642.50      0.069699
      279.00000      55008.10      53642.50      0.025458
      282.00000      54047.80      53642.50      0.007556
      285.00000      55503.80      53642.50      0.034699
      288.00000      56738.90      53642.50      0.057723
      291.00000      56945.40      53642.50      0.061573
      294.00000      55409.90      53642.50      0.032948
      297.00000      57065.20      53642.50      0.063806
      300.00000      56376.80      53642.50      0.050973
      303.00000      55722.10      53642.50      0.038767
      306.00000      55216.70      53642.50      0.029346
      309.00000      55682.20      53642.50      0.038025
      312.00000      54446.60      53642.50      0.014990
      315.00000      52687.30      53642.50      -0.017806
      318.00000      50539.40      53642.50      -0.057847
      321.00000      50277.90      53642.50      -0.062723
      324.00000      47510.70      53642.50      -0.114308
      327.00000      44790.10      53642.50      -0.165026
      330.00000      45385.60      53642.50      -0.153925
      333.00000      46355.80      53642.50      -0.135839
      336.00000      46078.50      53642.50      -0.141007
      339.00000      47703.00      53642.50      -0.110724
      342.00000      50716.00      53642.50      -0.054556
      345.00000      52152.10      53642.50      -0.027785
      348.00000      53547.20      53642.50      -0.001776
      351.00000      55717.20      53642.50      0.038677
      354.00000      55258.90      53642.50      0.030133
      357.00000      55343.60      53642.50      0.031713
      360.00000      50526.30      53642.50      -0.058092
       16     120       19.5900     57.2000      1.00000      0.00000
      0.00000      41171.10      45588.40      -0.096896
      3.00000      42251.90      45588.40      -0.073188
      6.00000      43605.00      45588.40      -0.043507
      9.00000      44092.50      45588.40      -0.032813
      12.00000      43993.60      45588.40      -0.034984
      15.00000      43684.80      45588.40      -0.041757
      18.00000      42451.70      45588.40      -0.068805
      21.00000      41350.00      45588.40      -0.092972
      24.00000      40931.70      45588.40      -0.102146
      27.00000      40760.40      45588.40      -0.105905
      30.00000      40375.40      45588.40      -0.114350
      33.00000      40393.10      45588.40      -0.113961
      36.00000      41565.90      45588.40      -0.088236
      39.00000      42633.10      45588.40      -0.064827
      42.00000      44222.40      45588.40      -0.029965
      45.00000      46803.50      45588.40      0.026654
      48.00000      49157.70      45588.40      0.078293
      51.00000      50560.00      45588.40      0.109054
      54.00000      51058.30      45588.40      0.119984
      57.00000      51537.20      45588.40      0.130489
      60.00000      49987.30      45588.40      0.096491
      63.00000      47738.20      45588.40      0.047155
      66.00000      47242.00      45588.40      0.036272
      69.00000      48205.90      45588.40      0.057416
      72.00000      47975.80      45588.40      0.052368
      75.00000      48926.60      45588.40      0.073224
      78.00000      50467.50      45588.40      0.107023
      81.00000      51636.00      45588.40      0.132656
      84.00000      51779.20      45588.40      0.135798
      87.00000      50615.60      45588.40      0.110273
      90.00000      51417.20      45588.40      0.127857
      93.00000      50615.60      45588.40      0.110273
      96.00000      51779.20      45588.40      0.135798
      99.00000      51636.00      45588.40      0.132656
      102.00000      50467.50      45588.40      0.107023
      105.00000      48926.60      45588.40      0.073224
      108.00000      47975.80      45588.40      0.052368
      111.00000      48205.90      45588.40      0.057416
      114.00000      47242.00      45588.40      0.036272
      117.00000      47738.20      45588.40      0.047155
      120.00000      49987.30      45588.40      0.096491
      123.00000      51537.20      45588.40      0.130489
      126.00000      51058.30      45588.40      0.119984
      129.00000      50560.00      45588.40      0.109054
      132.00000      49157.70      45588.40      0.078293
      135.00000      46803.50      45588.40      0.026654
      138.00000      44222.40      45588.40      -0.029965
      141.00000      42633.10      45588.40      -0.064827
      144.00000      41565.90      45588.40      -0.088236
      147.00000      40393.10      45588.40      -0.113961
      150.00000      40375.40      45588.40      -0.114350
      153.00000      40760.40      45588.40      -0.105905
      156.00000      40931.70      45588.40      -0.102146
      159.00000      41350.00      45588.40      -0.092972
      162.00000      42451.70      45588.40      -0.068805
      165.00000      43684.80      45588.40      -0.041757
      168.00000      43993.60      45588.40      -0.034984
      171.00000      44092.50      45588.40      -0.032813
      174.00000      43605.00      45588.40      -0.043507
      177.00000      42251.90      45588.40      -0.073188
      180.00000      41171.10      45588.40      -0.096896
      183.00000      42251.90      45588.40      -0.073188
      186.00000      43605.00      45588.40      -0.043507
      189.00000      44092.50      45588.40      -0.032813
      192.00000      43993.60      45588.40      -0.034984
      195.00000      43684.80      45588.40      -0.041757
      198.00000      42451.70      45588.40      -0.068805
      201.00000      41350.00      45588.40      -0.092972
      204.00000      40931.70      45588.40      -0.102146
      207.00000      40760.40      45588.40      -0.105905
      210.00000      40375.40      45588.40      -0.114350
      213.00000      40393.10      45588.40      -0.113961
      216.00000      41565.90      45588.40      -0.088236
      219.00000      42633.10      45588.40      -0.064827
      222.00000      44222.40      45588.40      -0.029965
      225.00000      46803.50      45588.40      0.026654
      228.00000      49157.70      45588.40      0.078293
      231.00000      50560.00      45588.40      0.109054
      234.00000      51058.30      45588.40      0.119984
      237.00000      51537.20      45588.40      0.130489
      240.00000      49987.30      45588.40      0.096491
      243.00000      47738.20      45588.40      0.047155
      246.00000      47242.00      45588.40      0.036272
      249.00000      48205.90      45588.40      0.057416
      252.00000      47975.80      45588.40      0.052368
      255.00000      48926.60      45588.40      0.073224
      258.00000      50467.50      45588.40      0.107023
      261.00000      51636.00      45588.40      0.132656
      264.00000      51779.20      45588.40      0.135798
      267.00000      50615.60      45588.40      0.110273
      270.00000      51417.20      45588.40      0.127857
      273.00000      50615.60      45588.40      0.110273
      276.00000      51779.20      45588.40      0.135798
      279.00000      51636.00      45588.40      0.132656
      282.00000      50467.50      45588.40      0.107023
      285.00000      48926.60      45588.40      0.073224
      288.00000      47975.80      45588.40      0.052368
      291.00000      48205.90      45588.40      0.057416
      294.00000      47242.00      45588.40      0.036272
      297.00000      47738.20      45588.40      0.047155
      300.00000      49987.30      45588.40      0.096491
      303.00000      51537.20      45588.40      0.130489
      306.00000      51058.30      45588.40      0.119984
      309.00000      50560.00      45588.40      0.109054
      312.00000      49157.70      45588.40      0.078293
      315.00000      46803.50      45588.40      0.026654
      318.00000      44222.40      45588.40      -0.029965
      321.00000      42633.10      45588.40      -0.064827
      324.00000      41565.90      45588.40      -0.088236
      327.00000      40393.10      45588.40      -0.113961
      330.00000      40375.40      45588.40      -0.114350
      333.00000      40760.40      45588.40      -0.105905
      336.00000      40931.70      45588.40      -0.102146
      339.00000      41350.00      45588.40      -0.092972
      342.00000      42451.70      45588.40      -0.068805
      345.00000      43684.80      45588.40      -0.041757
      348.00000      43993.60      45588.40      -0.034984
      351.00000      44092.50      45588.40      -0.032813
      354.00000      43605.00      45588.40      -0.043507
      357.00000      42251.90      45588.40      -0.073188
      360.00000      41171.10      45588.40      -0.096896
       17     120       19.5900     60.2000      1.00000      0.00000
      0.00000      35834.20      42388.40      -0.154622
      3.00000      35627.90      42388.40      -0.159490
      6.00000      35198.30      42388.40      -0.169623
      9.00000      35191.50      42388.40      -0.169785
      12.00000      35866.10      42388.40      -0.153869
      15.00000      37732.10      42388.40      -0.109848
      18.00000      37797.10      42388.40      -0.108313
      21.00000      38870.60      42388.40      -0.082989
      24.00000      39192.40      42388.40      -0.075397
      27.00000      40140.10      42388.40      -0.053040
      30.00000      39044.00      42388.40      -0.078899
      33.00000      39347.10      42388.40      -0.071749
      36.00000      39986.30      42388.40      -0.056668
      39.00000      41566.80      42388.40      -0.019383
      42.00000      42857.90      42388.40      0.011078
      45.00000      44680.70      42388.40      0.054078
      48.00000      47515.60      42388.40      0.120958
      51.00000      48714.70      42388.40      0.149247
      54.00000      50270.40      42388.40      0.185949
      57.00000      49487.10      42388.40      0.167469
      60.00000      48816.10      42388.40      0.151638
      63.00000      47851.90      42388.40      0.128892
      66.00000      47341.90      42388.40      0.116861
      69.00000      45552.70      42388.40      0.074652
      72.00000      45182.50      42388.40      0.065918
      75.00000      46068.90      42388.40      0.086829
      78.00000      47446.00      42388.40      0.119316
      81.00000      46479.50      42388.40      0.096516
      84.00000      46691.50      42388.40      0.101518
      87.00000      48523.10      42388.40      0.144727
      90.00000      49143.20      42388.40      0.159355
      93.00000      48523.10      42388.40      0.144727
      96.00000      46691.50      42388.40      0.101518
      99.00000      46479.50      42388.40      0.096516
      102.00000      47446.00      42388.40      0.119316
      105.00000      46068.90      42388.40      0.086829
      108.00000      45182.50      42388.40      0.065918
      111.00000      45552.70      42388.40      0.074652
      114.00000      47341.90      42388.40      0.116861
      117.00000      47851.90      42388.40      0.128892
      120.00000      48816.10      42388.40      0.151638
      123.00000      49487.10      42388.40      0.167469
      126.00000      50270.40      42388.40      0.185949
      129.00000      48714.70      42388.40      0.149247
      132.00000      47515.60      42388.40      0.120958
      135.00000      44680.70      42388.40      0.054078
      138.00000      42857.90      42388.40      0.011078
      141.00000      41566.80      42388.40      -0.019383
      144.00000      39986.30      42388.40      -0.056668
      147.00000      39347.10      42388.40      -0.071749
      150.00000      39044.00      42388.40      -0.078899
      153.00000      40140.10      42388.40      -0.053040
      156.00000      39192.40      42388.40      -0.075397
      159.00000      38870.60      42388.40      -0.082989
      162.00000      37797.10      42388.40      -0.108313
      165.00000      37732.10      42388.40      -0.109848
      168.00000      35866.10      42388.40      -0.153869
      171.00000      35191.50      42388.40      -0.169785
      174.00000      35198.30      42388.40      -0.169623
      177.00000      35627.90      42388.40      -0.159490
      180.00000      35834.20      42388.40      -0.154622
      183.00000      35627.90      42388.40      -0.159490
      186.00000      35198.30      42388.40      -0.169623
      189.00000      35191.50      42388.40      -0.169785
      192.00000      35866.10      42388.40      -0.153869
      195.00000      37732.10      42388.40      -0.109848
      198.00000      37797.10      42388.40      -0.108313
      201.00000      38870.60      42388.40      -0.082989
      204.00000      39192.40      42388.40      -0.075397
      207.00000      40140.10      42388.40      -0.053040
      210.00000      39044.00      42388.40      -0.078899
      213.00000      39347.10      42388.40      -0.071749
      216.00000      39986.30      42388.40      -0.056668
      219.00000      41566.80      42388.40      -0.019383
      222.00000      42857.90      42388.40      0.011078
      225.00000      44680.70      42388.40      0.054078
      228.00000      47515.60      42388.40      0.120958
      231.00000      48714.70      42388.40      0.149247
      234.00000      50270.40      42388.40      0.185949
      237.00000      49487.10      42388.40      0.167469
      240.00000      48816.10      42388.40      0.151638
      243.00000      47851.90      42388.40      0.128892
      246.00000      47341.90      42388.40      0.116861
      249.00000      45552.70      42388.40      0.074652
      252.00000      45182.50      42388.40      0.065918
      255.00000      46068.90      42388.40      0.086829
      258.00000      47446.00      42388.40      0.119316
      261.00000      46479.50      42388.40      0.096516
      264.00000      46691.50      42388.40      0.101518
      267.00000      48523.10      42388.40      0.144727
      270.00000      49143.20      42388.40      0.159355
      273.00000      48523.10      42388.40      0.144727
      276.00000      46691.50      42388.40      0.101518
      279.00000      46479.50      42388.40      0.096516
      282.00000      47446.00      42388.40      0.119316
      285.00000      46068.90      42388.40      0.086829
      288.00000      45182.50      42388.40      0.065918
      291.00000      45552.70      42388.40      0.074652
      294.00000      47341.90      42388.40      0.116861
      297.00000      47851.90      42388.40      0.128892
      300.00000      48816.10      42388.40      0.151638
      303.00000      49487.10      42388.40      0.167469
      306.00000      50270.40      42388.40      0.185949
      309.00000      48714.70      42388.40      0.149247
      312.00000      47515.60      42388.40      0.120958
      315.00000      44680.70      42388.40      0.054078
      318.00000      42857.90      42388.40      0.011078
      321.00000      41566.80      42388.40      -0.019383
      324.00000      39986.30      42388.40      -0.056668
      327.00000      39347.10      42388.40      -0.071749
      330.00000      39044.00      42388.40      -0.078899
      333.00000      40140.10      42388.40      -0.053040
      336.00000      39192.40      42388.40      -0.075397
      339.00000      38870.60      42388.40      -0.082989
      342.00000      37797.10      42388.40      -0.108313
      345.00000      37732.10      42388.40      -0.109848
      348.00000      35866.10      42388.40      -0.153869
      351.00000      35191.50      42388.40      -0.169785
      354.00000      35198.30      42388.40      -0.169623
      357.00000      35627.90      42388.40      -0.159490
      360.00000      35834.20      42388.40      -0.154622
       18     120       19.5900     63.2000      1.00000      0.00000
      0.00000      29464.40      38169.70      -0.228070
      3.00000      29340.30      38169.70      -0.231320
      6.00000      30078.90      38169.70      -0.211970
      9.00000      30164.90      38169.70      -0.209716
      12.00000      31073.60      38169.70      -0.185909
      15.00000      31213.30      38169.70      -0.182248
      18.00000      32794.10      38169.70      -0.140835
      21.00000      33965.40      38169.70      -0.110148
      24.00000      35963.20      38169.70      -0.057808
      27.00000      36612.00      38169.70      -0.040811
      30.00000      37011.40      38169.70      -0.030345
      33.00000      37288.50      38169.70      -0.023087
      36.00000      37152.20      38169.70      -0.026656
      39.00000      37472.10      38169.70      -0.018275
      42.00000      38010.40      38169.70      -0.004174
      45.00000      42835.40      38169.70      0.122237
      48.00000      44566.60      38169.70      0.167592
      51.00000      47391.10      38169.70      0.241590
      54.00000      47148.60      38169.70      0.235237
      57.00000      47520.90      38169.70      0.244991
      60.00000      44155.90      38169.70      0.156832
      63.00000      43469.30      38169.70      0.138844
      66.00000      42480.70      38169.70      0.112943
      69.00000      43016.40      38169.70      0.126977
      72.00000      42794.80      38169.70      0.121171
      75.00000      42100.90      38169.70      0.102993
      78.00000      42641.10      38169.70      0.117145
      81.00000      42363.90      38169.70      0.109882
      84.00000      41665.90      38169.70      0.091596
      87.00000      41160.90      38169.70      0.078366
      90.00000      41896.70      38169.70      0.097643
      93.00000      41160.90      38169.70      0.078366
      96.00000      41665.90      38169.70      0.091596
      99.00000      42363.90      38169.70      0.109882
      102.00000      42641.10      38169.70      0.117145
      105.00000      42100.90      38169.70      0.102993
      108.00000      42794.80      38169.70      0.121171
      111.00000      43016.40      38169.70      0.126977
      114.00000      42480.70      38169.70      0.112943
      117.00000      43469.30      38169.70      0.138844
      120.00000      44155.90      38169.70      0.156832
      123.00000      47520.90      38169.70      0.244991
      126.00000      47148.60      38169.70      0.235237
      129.00000      47391.10      38169.70      0.241590
      132.00000      44566.60      38169.70      0.167592
      135.00000      42835.40      38169.70      0.122237
      138.00000      38010.40      38169.70      -0.004174
      141.00000      37472.10      38169.70      -0.018275
      144.00000      37152.20      38169.70      -0.026656
      147.00000      37288.50      38169.70      -0.023087
      150.00000      37011.40      38169.70      -0.030345
      153.00000      36612.00      38169.70      -0.040811
      156.00000      35963.20      38169.70      -0.057808
      159.00000      33965.40      38169.70      -0.110148
      162.00000      32794.10      38169.70      -0.140835
      165.00000      31213.30      38169.70      -0.182248
      168.00000      31073.60      38169.70      -0.185909
      171.00000      30164.90      38169.70      -0.209716
      174.00000      30078.90      38169.70      -0.211970
      177.00000      29340.30      38169.70      -0.231320
      180.00000      29464.40      38169.70      -0.228070
      183.00000      29340.30      38169.70      -0.231320
      186.00000      30078.90      38169.70      -0.211970
      189.00000      30164.90      38169.70      -0.209716
      192.00000      31073.60      38169.70      -0.185909
      195.00000      31213.30      38169.70      -0.182248
      198.00000      32794.10      38169.70      -0.140835
      201.00000      33965.40      38169.70      -0.110148
      204.00000      35963.20      38169.70      -0.057808
      207.00000      36612.00      38169.70      -0.040811
      210.00000      37011.40      38169.70      -0.030345
      213.00000      37288.50      38169.70      -0.023087
      216.00000      37152.20      38169.70      -0.026656
      219.00000      37472.10      38169.70      -0.018275
      222.00000      38010.40      38169.70      -0.004174
      225.00000      42835.40      38169.70      0.122237
      228.00000      44566.60      38169.70      0.167592
      231.00000      47391.10      38169.70      0.241590
      234.00000      47148.60      38169.70      0.235237
      237.00000      47520.90      38169.70      0.244991
      240.00000      44155.90      38169.70      0.156832
      243.00000      43469.30      38169.70      0.138844
      246.00000      42480.70      38169.70      0.112943
      249.00000      43016.40      38169.70      0.126977
      252.00000      42794.80      38169.70      0.121171
      255.00000      42100.90      38169.70      0.102993
      258.00000      42641.10      38169.70      0.117145
      261.00000      42363.90      38169.70      0.109882
      264.00000      41665.90      38169.70      0.091596
      267.00000      41160.90      38169.70      0.078366
      270.00000      41896.70      38169.70      0.097643
      273.00000      41160.90      38169.70      0.078366
      276.00000      41665.90      38169.70      0.091596
      279.00000      42363.90      38169.70      0.109882
      282.00000      42641.10      38169.70      0.117145
      285.00000      42100.90      38169.70      0.102993
      288.00000      42794.80      38169.70      0.121171
      291.00000      43016.40      38169.70      0.126977
      294.00000      42480.70      38169.70      0.112943
      297.00000      43469.30      38169.70      0.138844
      300.00000      44155.90      38169.70      0.156832
      303.00000      47520.90      38169.70      0.244991
      306.00000      47148.60      38169.70      0.235237
      309.00000      47391.10      38169.70      0.241590
      312.00000      44566.60      38169.70      0.167592
      315.00000      42835.40      38169.70      0.122237
      318.00000      38010.40      38169.70      -0.004174
      321.00000      37472.10      38169.70      -0.018275
      324.00000      37152.20      38169.70      -0.026656
      327.00000      37288.50      38169.70      -0.023087
      330.00000      37011.40      38169.70      -0.030345
      333.00000      36612.00      38169.70      -0.040811
      336.00000      35963.20      38169.70      -0.057808
      339.00000      33965.40      38169.70      -0.110148
      342.00000      32794.10      38169.70      -0.140835
      345.00000      31213.30      38169.70      -0.182248
      348.00000      31073.60      38169.70      -0.185909
      351.00000      30164.90      38169.70      -0.209716
      354.00000      30078.90      38169.70      -0.211970
      357.00000      29340.30      38169.70      -0.231320
      360.00000      29464.40      38169.70      -0.228070
       19     120       19.5900     66.2000      1.00000      0.00000
      0.00000      22727.80      31997.20      -0.289694
      3.00000      24607.10      31997.20      -0.230963
      6.00000      26250.50      31997.20      -0.179602
      9.00000      26536.60      31997.20      -0.170659
      12.00000      26705.70      31997.20      -0.165375
      15.00000      26911.80      31997.20      -0.158933
      18.00000      27130.90      31997.20      -0.152087
      21.00000      27994.40      31997.20      -0.125099
      24.00000      29833.80      31997.20      -0.067613
      27.00000      31792.70      31997.20      -0.006392
      30.00000      32897.50      31997.20      0.028136
      33.00000      33111.10      31997.20      0.034813
      36.00000      32680.70      31997.20      0.021361
      39.00000      32818.00      31997.20      0.025650
      42.00000      32438.30      31997.20      0.013784
      45.00000      33973.30      31997.20      0.061759
      48.00000      35122.30      31997.20      0.097666
      51.00000      36723.20      31997.20      0.147701
      54.00000      35919.70      31997.20      0.122589
      57.00000      35945.50      31997.20      0.123395
      60.00000      35366.60      31997.20      0.105301
      63.00000      35938.00      31997.20      0.123159
      66.00000      36786.70      31997.20      0.149683
      69.00000      37896.70      31997.20      0.184373
      72.00000      37778.30      31997.20      0.180676
      75.00000      37452.90      31997.20      0.170505
      78.00000      35586.80      31997.20      0.112185
      81.00000      34205.90      31997.20      0.069029
      84.00000      33577.20      31997.20      0.049378
      87.00000      34010.90      31997.20      0.062934
      90.00000      34582.70      31997.20      0.080804
      93.00000      34010.90      31997.20      0.062934
      96.00000      33577.20      31997.20      0.049378
      99.00000      34205.90      31997.20      0.069029
      102.00000      35586.80      31997.20      0.112185
      105.00000      37452.90      31997.20      0.170505
      108.00000      37778.30      31997.20      0.180676
      111.00000      37896.70      31997.20      0.184373
      114.00000      36786.70      31997.20      0.149683
      117.00000      35938.00      31997.20      0.123159
      120.00000      35366.60      31997.20      0.105301
      123.00000      35945.50      31997.20      0.123395
      126.00000      35919.70      31997.20      0.122589
      129.00000      36723.20      31997.20      0.147701
      132.00000      35122.30      31997.20      0.097666
      135.00000      33973.30      31997.20      0.061759
      138.00000      32438.30      31997.20      0.013784
      141.00000      32818.00      31997.20      0.025650
      144.00000      32680.70      31997.20      0.021361
      147.00000      33111.10      31997.20      0.034813
      150.00000      32897.50      31997.20      0.028136
      153.00000      31792.70      31997.20      -0.006392
      156.00000      29833.80      31997.20      -0.067613
      159.00000      27994.40      31997.20      -0.125099
      162.00000      27130.90      31997.20      -0.152087
      165.00000      26911.80      31997.20      -0.158933
      168.00000      26705.70      31997.20      -0.165375
      171.00000      26536.60      31997.20      -0.170659
      174.00000      26250.50      31997.20      -0.179602
      177.00000      24607.10      31997.20      -0.230963
      180.00000      22727.80      31997.20      -0.289694
      183.00000      24607.10      31997.20      -0.230963
      186.00000      26250.50      31997.20      -0.179602
      189.00000      26536.60      31997.20      -0.170659
      192.00000      26705.70      31997.20      -0.165375
      195.00000      26911.80      31997.20      -0.158933
      198.00000      27130.90      31997.20      -0.152087
      201.00000      27994.40      31997.20      -0.125099
      204.00000      29833.80      31997.20      -0.067613
      207.00000      31792.70      31997.20      -0.006392
      210.00000      32897.50      31997.20      0.028136
      213.00000      33111.10      31997.20      0.034813
      216.00000      32680.70      31997.20      0.021361
      219.00000      32818.00      31997.20      0.025650
      222.00000      32438.30      31997.20      0.013784
      225.00000      33973.30      31997.20      0.061759
      228.00000      35122.30      31997.20      0.097666
      231.00000      36723.20      31997.20      0.147701
      234.00000      35919.70      31997.20      0.122589
      237.00000      35945.50      31997.20      0.123395
      240.00000      35366.60      31997.20      0.105301
      243.00000      35938.00      31997.20      0.123159
      246.00000      36786.70      31997.20      0.149683
      249.00000      37896.70      31997.20      0.184373
      252.00000      37778.30      31997.20      0.180676
      255.00000      37452.90      31997.20      0.170505
      258.00000      35586.80      31997.20      0.112185
      261.00000      34205.90      31997.20      0.069029
      264.00000      33577.20      31997.20      0.049378
      267.00000      34010.90      31997.20      0.062934
      270.00000      34582.70      31997.20      0.080804
      273.00000      34010.90      31997.20      0.062934
      276.00000      33577.20      31997.20      0.049378
      279.00000      34205.90      31997.20      0.069029
      282.00000      35586.80      31997.20      0.112185
      285.00000      37452.90      31997.20      0.170505
      288.00000      37778.30      31997.20      0.180676
      291.00000      37896.70      31997.20      0.184373
      294.00000      36786.70      31997.20      0.149683
      297.00000      35938.00      31997.20      0.123159
      300.00000      35366.60      31997.20      0.105301
      303.00000      35945.50      31997.20      0.123395
      306.00000      35919.70      31997.20      0.122589
      309.00000      36723.20      31997.20      0.147701
      312.00000      35122.30      31997.20      0.097666
      315.00000      33973.30      31997.20      0.061759
      318.00000      32438.30      31997.20      0.013784
      321.00000      32818.00      31997.20      0.025650
      324.00000      32680.70      31997.20      0.021361
      327.00000      33111.10      31997.20      0.034813
      330.00000      32897.50      31997.20      0.028136
      333.00000      31792.70      31997.20      -0.006392
      336.00000      29833.80      31997.20      -0.067613
      339.00000      27994.40      31997.20      -0.125099
      342.00000      27130.90      31997.20      -0.152087
      345.00000      26911.80      31997.20      -0.158933
      348.00000      26705.70      31997.20      -0.165375
      351.00000      26536.60      31997.20      -0.170659
      354.00000      26250.50      31997.20      -0.179602
      357.00000      24607.10      31997.20      -0.230963
      360.00000      22727.80      31997.20      -0.289694
       20     120       19.5900     69.2000      1.00000      0.00000
      0.00000      22080.00      26414.40      -0.164095
      3.00000      19876.40      26414.40      -0.247518
      6.00000      22502.80      26414.40      -0.148085
      9.00000      22174.80      26414.40      -0.160503
      12.00000      22175.40      26414.40      -0.160480
      15.00000      21878.70      26414.40      -0.171712
      18.00000      21493.20      26414.40      -0.186309
      21.00000      22345.40      26414.40      -0.154047
      24.00000      24007.40      26414.40      -0.091124
      27.00000      25950.80      26414.40      -0.017550
      30.00000      27277.90      26414.40      0.032690
      33.00000      28448.70      26414.40      0.077014
      36.00000      28016.00      26414.40      0.060631
      39.00000      27173.20      26414.40      0.028727
      42.00000      26347.30      26414.40      -0.002540
      45.00000      26072.60      26414.40      -0.012940
      48.00000      25463.50      26414.40      -0.036001
      51.00000      26112.00      26414.40      -0.011447
      54.00000      26161.20      26414.40      -0.009588
      57.00000      25714.20      26414.40      -0.026510
      60.00000      26752.60      26414.40      0.012803
      63.00000      28992.30      26414.40      0.097592
      66.00000      30802.10      26414.40      0.166110
      69.00000      33127.70      26414.40      0.254153
      72.00000      33880.50      26414.40      0.282650
      75.00000      32250.70      26414.40      0.220952
      78.00000      30099.20      26414.40      0.139498
      81.00000      28634.90      26414.40      0.084064
      84.00000      27227.20      26414.40      0.030770
      87.00000      27278.70      26414.40      0.032720
      90.00000      28413.30      26414.40      0.075675
      93.00000      27278.70      26414.40      0.032720
      96.00000      27227.20      26414.40      0.030770
      99.00000      28634.90      26414.40      0.084064
      102.00000      30099.20      26414.40      0.139498
      105.00000      32250.70      26414.40      0.220952
      108.00000      33880.50      26414.40      0.282650
      111.00000      33127.70      26414.40      0.254153
      114.00000      30802.10      26414.40      0.166110
      117.00000      28992.30      26414.40      0.097592
      120.00000      26752.60      26414.40      0.012803
      123.00000      25714.20      26414.40      -0.026510
      126.00000      26161.20      26414.40      -0.009588
      129.00000      26112.00      26414.40      -0.011447
      132.00000      25463.50      26414.40      -0.036001
      135.00000      26072.60      26414.40      -0.012940
      138.00000      26347.30      26414.40      -0.002540
      141.00000      27173.20      26414.40      0.028727
      144.00000      28016.00      26414.40      0.060631
      147.00000      28448.70      26414.40      0.077014
      150.00000      27277.90      26414.40      0.032690
      153.00000      25950.80      26414.40      -0.017550
      156.00000      24007.40      26414.40      -0.091124
      159.00000      22345.40      26414.40      -0.154047
      162.00000      21493.20      26414.40      -0.186309
      165.00000      21878.70      26414.40      -0.171712
      168.00000      22175.40      26414.40      -0.160480
      171.00000      22174.80      26414.40      -0.160503
      174.00000      22502.80      26414.40      -0.148085
      177.00000      19876.40      26414.40      -0.247518
      180.00000      22080.00      26414.40      -0.164095
      183.00000      19876.40      26414.40      -0.247518
      186.00000      22502.80      26414.40      -0.148085
      189.00000      22174.80      26414.40      -0.160503
      192.00000      22175.40      26414.40      -0.160480
      195.00000      21878.70      26414.40      -0.171712
      198.00000      21493.20      26414.40      -0.186309
      201.00000      22345.40      26414.40      -0.154047
      204.00000      24007.40      26414.40      -0.091124
      207.00000      25950.80      26414.40      -0.017550
      210.00000      27277.90      26414.40      0.032690
      213.00000      28448.70      26414.40      0.077014
      216.00000      28016.00      26414.40      0.060631
      219.00000      27173.20      26414.40      0.028727
      222.00000      26347.30      26414.40      -0.002540
      225.00000      26072.60      26414.40      -0.012940
      228.00000      25463.50      26414.40      -0.036001
      231.00000      26112.00      26414.40      -0.011447
      234.00000      26161.20      26414.40      -0.009588
      237.00000      25714.20      26414.40      -0.026510
      240.00000      26752.60      26414.40      0.012803
      243.00000      28992.30      26414.40      0.097592
      246.00000      30802.10      26414.40      0.166110
      249.00000      33127.70      26414.40      0.254153
      252.00000      33880.50      26414.40      0.282650
      255.00000      32250.70      26414.40      0.220952
      258.00000      30099.20      26414.40      0.139498
      261.00000      28634.90      26414.40      0.084064
      264.00000      27227.20      26414.40      0.030770
      267.00000      27278.70      26414.40      0.032720
      270.00000      28413.30      26414.40      0.075675
      273.00000      27278.70      26414.40      0.032720
      276.00000      27227.20      26414.40      0.030770
      279.00000      28634.90      26414.40      0.084064
      282.00000      30099.20      26414.40      0.139498
      285.00000      32250.70      26414.40      0.220952
      288.00000      33880.50      26414.40      0.282650
      291.00000      33127.70      26414.40      0.254153
      294.00000      30802.10      26414.40      0.166110
      297.00000      28992.30      26414.40      0.097592
      300.00000      26752.60      26414.40      0.012803
      303.00000      25714.20      26414.40      -0.026510
      306.00000      26161.20      26414.40      -0.009588
      309.00000      26112.00      26414.40      -0.011447
      312.00000      25463.50      26414.40      -0.036001
      315.00000      26072.60      26414.40      -0.012940
      318.00000      26347.30      26414.40      -0.002540
      321.00000      27173.20      26414.40      0.028727
      324.00000      28016.00      26414.40      0.060631
      327.00000      28448.70      26414.40      0.077014
      330.00000      27277.90      26414.40      0.032690
      333.00000      25950.80      26414.40      -0.017550
      336.00000      24007.40      26414.40      -0.091124
      339.00000      22345.40      26414.40      -0.154047
      342.00000      21493.20      26414.40      -0.186309
      345.00000      21878.70      26414.40      -0.171712
      348.00000      22175.40      26414.40      -0.160480
      351.00000      22174.80      26414.40      -0.160503
      354.00000      22502.80      26414.40      -0.148085
      357.00000      19876.40      26414.40      -0.247518
      360.00000      22080.00      26414.40      -0.164095
