      20    2400    0     datakind beginning-row linenumbers
MSCD Version 1.00 Yufeng Chen and Michel A Van Hove
Lawrence Berkeley National Laboratory (LBNL), Berkeley, CA 94720
Copyright (c) Van Hove Group 1997. All rights reserved
--------------------------------------------------------------
angle-resolved photoemission extended fine structure (ARPEFS)
experimental data for Fe 2p3/2 from Fe on STO(100)  excited with hv=1810eV
provided by Pancotti et al. (LNLS in 9, June 2010)
   intial angular momentum (l) = 1
   photon polarization angle (polar,azimuth) = (  30.0,   0.0 ) (deg)
   sample temperature = 300 K
   photoemission angular scan curves
     (20 2400 12.2000)
      20     2400       1       20     120     2400
       1     120       19.5900     12.2000      1.00000      0.00000
      1.00000      38556.70      36356.40      0.060520
      4.00000      38016.30      36356.40      0.045654
      7.00000      39019.80      36356.40      0.073258
      10.00000      39051.50      36356.40      0.074129
      13.00000      36723.10      36356.40      0.010084
      16.00000      38633.10      36356.40      0.062621
      19.00000      39744.90      36356.40      0.093202
      22.00000      39854.80      36356.40      0.096224
      25.00000      38655.20      36356.40      0.063229
      28.00000      37538.60      36356.40      0.032517
      31.00000      38172.50      36356.40      0.049953
      34.00000      37165.90      36356.40      0.022264
      37.00000      37547.80      36356.40      0.032769
      40.00000      37203.60      36356.40      0.023302
      43.00000      38170.70      36356.40      0.049903
      46.00000      37286.70      36356.40      0.025587
      49.00000      36599.30      36356.40      0.006680
      52.00000      35345.00      36356.40      -0.027818
      55.00000      35559.50      36356.40      -0.021919
      58.00000      34400.60      36356.40      -0.053795
      61.00000      34376.70      36356.40      -0.054454
      64.00000      35577.90      36356.40      -0.021412
      67.00000      35412.00      36356.40      -0.025978
      70.00000      34585.00      36356.40      -0.048723
      73.00000      34644.50      36356.40      -0.047086
      76.00000      34256.30      36356.40      -0.057766
      79.00000      33325.20      36356.40      -0.083375
      82.00000      35037.20      36356.40      -0.036285
      85.00000      36271.70      36356.40      -0.002329
      88.00000      36926.50      36356.40      0.015679
      92.00000      36926.50      36356.40      0.015679
      95.00000      36271.70      36356.40      -0.002329
      98.00000      35037.20      36356.40      -0.036285
      101.00000      33325.20      36356.40      -0.083375
      104.00000      34256.30      36356.40      -0.057766
      107.00000      34644.50      36356.40      -0.047086
      110.00000      34585.00      36356.40      -0.048723
      113.00000      35412.00      36356.40      -0.025978
      116.00000      35577.90      36356.40      -0.021412
      119.00000      34376.70      36356.40      -0.054454
      122.00000      34400.60      36356.40      -0.053795
      125.00000      35559.50      36356.40      -0.021919
      128.00000      35345.00      36356.40      -0.027818
      131.00000      36599.30      36356.40      0.006680
      134.00000      37286.70      36356.40      0.025587
      137.00000      38170.70      36356.40      0.049903
      140.00000      37203.60      36356.40      0.023302
      143.00000      37547.80      36356.40      0.032769
      146.00000      37165.90      36356.40      0.022264
      149.00000      38172.50      36356.40      0.049953
      152.00000      37538.60      36356.40      0.032517
      155.00000      38655.20      36356.40      0.063229
      158.00000      39854.80      36356.40      0.096224
      161.00000      39744.90      36356.40      0.093202
      164.00000      38633.10      36356.40      0.062621
      167.00000      36723.10      36356.40      0.010084
      170.00000      39051.50      36356.40      0.074129
      173.00000      39019.80      36356.40      0.073258
      176.00000      38016.30      36356.40      0.045654
      179.00000      38556.70      36356.40      0.060520
      181.00000      38556.70      36356.40      0.060520
      184.00000      38016.30      36356.40      0.045654
      187.00000      39019.80      36356.40      0.073258
      190.00000      39051.50      36356.40      0.074129
      193.00000      36723.10      36356.40      0.010084
      196.00000      38633.10      36356.40      0.062621
      199.00000      39744.90      36356.40      0.093202
      202.00000      39854.80      36356.40      0.096224
      205.00000      38655.20      36356.40      0.063229
      208.00000      37538.60      36356.40      0.032517
      211.00000      38172.50      36356.40      0.049953
      214.00000      37165.90      36356.40      0.022264
      217.00000      37547.80      36356.40      0.032769
      220.00000      37203.60      36356.40      0.023302
      223.00000      38170.70      36356.40      0.049903
      226.00000      37286.70      36356.40      0.025587
      229.00000      36599.30      36356.40      0.006680
      232.00000      35345.00      36356.40      -0.027818
      235.00000      35559.50      36356.40      -0.021919
      238.00000      34400.60      36356.40      -0.053795
      241.00000      34376.70      36356.40      -0.054454
      244.00000      35577.90      36356.40      -0.021412
      247.00000      35412.00      36356.40      -0.025978
      250.00000      34585.00      36356.40      -0.048723
      253.00000      34644.50      36356.40      -0.047086
      256.00000      34256.30      36356.40      -0.057766
      259.00000      33325.20      36356.40      -0.083375
      262.00000      35037.20      36356.40      -0.036285
      265.00000      36271.70      36356.40      -0.002329
      268.00000      36926.50      36356.40      0.015679
      272.00000      36926.50      36356.40      0.015679
      275.00000      36271.70      36356.40      -0.002329
      278.00000      35037.20      36356.40      -0.036285
      281.00000      33325.20      36356.40      -0.083375
      284.00000      34256.30      36356.40      -0.057766
      287.00000      34644.50      36356.40      -0.047086
      290.00000      34585.00      36356.40      -0.048723
      293.00000      35412.00      36356.40      -0.025978
      296.00000      35577.90      36356.40      -0.021412
      299.00000      34376.70      36356.40      -0.054454
      302.00000      34400.60      36356.40      -0.053795
      305.00000      35559.50      36356.40      -0.021919
      308.00000      35345.00      36356.40      -0.027818
      311.00000      36599.30      36356.40      0.006680
      314.00000      37286.70      36356.40      0.025587
      317.00000      38170.70      36356.40      0.049903
      320.00000      37203.60      36356.40      0.023302
      323.00000      37547.80      36356.40      0.032769
      326.00000      37165.90      36356.40      0.022264
      329.00000      38172.50      36356.40      0.049953
      332.00000      37538.60      36356.40      0.032517
      335.00000      38655.20      36356.40      0.063229
      338.00000      39854.80      36356.40      0.096224
      341.00000      39744.90      36356.40      0.093202
      344.00000      38633.10      36356.40      0.062621
      347.00000      36723.10      36356.40      0.010084
      350.00000      39051.50      36356.40      0.074129
      353.00000      39019.80      36356.40      0.073258
      356.00000      38016.30      36356.40      0.045654
      359.00000      38556.70      36356.40      0.060520
       2     120       19.5900     15.2000      1.00000      0.00000
      1.00000      36577.10      34729.10      0.053211
      4.00000      36523.90      34729.10      0.051679
      7.00000      41624.20      34729.10      0.198538
      10.00000      37403.70      34729.10      0.077011
      13.00000      38948.70      34729.10      0.121499
      16.00000      39239.50      34729.10      0.129873
      19.00000      39226.60      34729.10      0.129501
      22.00000      39311.40      34729.10      0.131944
      25.00000      37959.90      34729.10      0.093029
      28.00000      36970.70      34729.10      0.064545
      31.00000      35894.20      34729.10      0.033548
      34.00000      35174.60      34729.10      0.012827
      37.00000      34005.60      34729.10      -0.020833
      40.00000      33774.40      34729.10      -0.027491
      43.00000      33713.70      34729.10      -0.029240
      46.00000      34218.30      34729.10      -0.014710
      49.00000      34567.00      34729.10      -0.004670
      52.00000      34853.00      34729.10      0.003566
      55.00000      34579.60      34729.10      -0.004305
      58.00000      34355.90      34729.10      -0.010748
      61.00000      33764.80      34729.10      -0.027766
      64.00000      32506.30      34729.10      -0.064006
      67.00000      31740.50      34729.10      -0.086055
      70.00000      31998.10      34729.10      -0.078638
      73.00000      31549.40      34729.10      -0.091559
      76.00000      31052.80      34729.10      -0.105857
      79.00000      31585.80      34729.10      -0.090510
      82.00000      31851.90      34729.10      -0.082849
      85.00000      31483.00      34729.10      -0.093469
      88.00000      33136.20      34729.10      -0.045868
      92.00000      33136.20      34729.10      -0.045868
      95.00000      31483.00      34729.10      -0.093469
      98.00000      31851.90      34729.10      -0.082849
      101.00000      31585.80      34729.10      -0.090510
      104.00000      31052.80      34729.10      -0.105857
      107.00000      31549.40      34729.10      -0.091559
      110.00000      31998.10      34729.10      -0.078638
      113.00000      31740.50      34729.10      -0.086055
      116.00000      32506.30      34729.10      -0.064006
      119.00000      33764.80      34729.10      -0.027766
      122.00000      34355.90      34729.10      -0.010748
      125.00000      34579.60      34729.10      -0.004305
      128.00000      34853.00      34729.10      0.003566
      131.00000      34567.00      34729.10      -0.004670
      134.00000      34218.30      34729.10      -0.014710
      137.00000      33713.70      34729.10      -0.029240
      140.00000      33774.40      34729.10      -0.027491
      143.00000      34005.60      34729.10      -0.020833
      146.00000      35174.60      34729.10      0.012827
      149.00000      35894.20      34729.10      0.033548
      152.00000      36970.70      34729.10      0.064545
      155.00000      37959.90      34729.10      0.093029
      158.00000      39311.40      34729.10      0.131944
      161.00000      39226.60      34729.10      0.129501
      164.00000      39239.50      34729.10      0.129873
      167.00000      38948.70      34729.10      0.121499
      170.00000      37403.70      34729.10      0.077011
      173.00000      41624.20      34729.10      0.198538
      176.00000      36523.90      34729.10      0.051679
      179.00000      36577.10      34729.10      0.053211
      181.00000      36577.10      34729.10      0.053211
      184.00000      36523.90      34729.10      0.051679
      187.00000      41624.20      34729.10      0.198538
      190.00000      37403.70      34729.10      0.077011
      193.00000      38948.70      34729.10      0.121499
      196.00000      39239.50      34729.10      0.129873
      199.00000      39226.60      34729.10      0.129501
      202.00000      39311.40      34729.10      0.131944
      205.00000      37959.90      34729.10      0.093029
      208.00000      36970.70      34729.10      0.064545
      211.00000      35894.20      34729.10      0.033548
      214.00000      35174.60      34729.10      0.012827
      217.00000      34005.60      34729.10      -0.020833
      220.00000      33774.40      34729.10      -0.027491
      223.00000      33713.70      34729.10      -0.029240
      226.00000      34218.30      34729.10      -0.014710
      229.00000      34567.00      34729.10      -0.004670
      232.00000      34853.00      34729.10      0.003566
      235.00000      34579.60      34729.10      -0.004305
      238.00000      34355.90      34729.10      -0.010748
      241.00000      33764.80      34729.10      -0.027766
      244.00000      32506.30      34729.10      -0.064006
      247.00000      31740.50      34729.10      -0.086055
      250.00000      31998.10      34729.10      -0.078638
      253.00000      31549.40      34729.10      -0.091559
      256.00000      31052.80      34729.10      -0.105857
      259.00000      31585.80      34729.10      -0.090510
      262.00000      31851.90      34729.10      -0.082849
      265.00000      31483.00      34729.10      -0.093469
      268.00000      33136.20      34729.10      -0.045868
      272.00000      33136.20      34729.10      -0.045868
      275.00000      31483.00      34729.10      -0.093469
      278.00000      31851.90      34729.10      -0.082849
      281.00000      31585.80      34729.10      -0.090510
      284.00000      31052.80      34729.10      -0.105857
      287.00000      31549.40      34729.10      -0.091559
      290.00000      31998.10      34729.10      -0.078638
      293.00000      31740.50      34729.10      -0.086055
      296.00000      32506.30      34729.10      -0.064006
      299.00000      33764.80      34729.10      -0.027766
      302.00000      34355.90      34729.10      -0.010748
      305.00000      34579.60      34729.10      -0.004305
      308.00000      34853.00      34729.10      0.003566
      311.00000      34567.00      34729.10      -0.004670
      314.00000      34218.30      34729.10      -0.014710
      317.00000      33713.70      34729.10      -0.029240
      320.00000      33774.40      34729.10      -0.027491
      323.00000      34005.60      34729.10      -0.020833
      326.00000      35174.60      34729.10      0.012827
      329.00000      35894.20      34729.10      0.033548
      332.00000      36970.70      34729.10      0.064545
      335.00000      37959.90      34729.10      0.093029
      338.00000      39311.40      34729.10      0.131944
      341.00000      39226.60      34729.10      0.129501
      344.00000      39239.50      34729.10      0.129873
      347.00000      38948.70      34729.10      0.121499
      350.00000      37403.70      34729.10      0.077011
      353.00000      41624.20      34729.10      0.198538
      356.00000      36523.90      34729.10      0.051679
      359.00000      36577.10      34729.10      0.053211
       3     120       19.5900     18.2000      1.00000      0.00000
      1.00000      44254.10      40841.50      0.083558
      4.00000      44404.10      40841.50      0.087231
      7.00000      51315.40      40841.50      0.256453
      10.00000      48627.90      40841.50      0.190650
      13.00000      44206.80      40841.50      0.082399
      16.00000      47921.30      40841.50      0.173349
      19.00000      47539.80      40841.50      0.164007
      22.00000      45577.00      40841.50      0.115948
      25.00000      44872.20      40841.50      0.098693
      28.00000      45432.70      40841.50      0.112416
      31.00000      44680.00      40841.50      0.093986
      34.00000      42689.40      40841.50      0.045246
      37.00000      42100.50      40841.50      0.030827
      40.00000      41181.60      40841.50      0.008327
      43.00000      39489.10      40841.50      -0.033114
      46.00000      39597.80      40841.50      -0.030453
      49.00000      40855.60      40841.50      0.000346
      52.00000      42852.00      40841.50      0.049227
      55.00000      41022.30      40841.50      0.004427
      58.00000      42338.20      40841.50      0.036647
      61.00000      41178.60      40841.50      0.008255
      64.00000      39879.10      40841.50      -0.023565
      67.00000      37467.60      40841.50      -0.082609
      70.00000      37791.70      40841.50      -0.074674
      73.00000      36361.60      40841.50      -0.109690
      76.00000      36209.10      40841.50      -0.113424
      79.00000      34962.20      40841.50      -0.143953
      82.00000      35262.10      40841.50      -0.136612
      85.00000      36036.10      40841.50      -0.117660
      88.00000      36369.30      40841.50      -0.109502
      92.00000      36369.30      40841.50      -0.109502
      95.00000      36036.10      40841.50      -0.117660
      98.00000      35262.10      40841.50      -0.136612
      101.00000      34962.20      40841.50      -0.143953
      104.00000      36209.10      40841.50      -0.113424
      107.00000      36361.60      40841.50      -0.109690
      110.00000      37791.70      40841.50      -0.074674
      113.00000      37467.60      40841.50      -0.082609
      116.00000      39879.10      40841.50      -0.023565
      119.00000      41178.60      40841.50      0.008255
      122.00000      42338.20      40841.50      0.036647
      125.00000      41022.30      40841.50      0.004427
      128.00000      42852.00      40841.50      0.049227
      131.00000      40855.60      40841.50      0.000346
      134.00000      39597.80      40841.50      -0.030453
      137.00000      39489.10      40841.50      -0.033114
      140.00000      41181.60      40841.50      0.008327
      143.00000      42100.50      40841.50      0.030827
      146.00000      42689.40      40841.50      0.045246
      149.00000      44680.00      40841.50      0.093986
      152.00000      45432.70      40841.50      0.112416
      155.00000      44872.20      40841.50      0.098693
      158.00000      45577.00      40841.50      0.115948
      161.00000      47539.80      40841.50      0.164007
      164.00000      47921.30      40841.50      0.173349
      167.00000      44206.80      40841.50      0.082399
      170.00000      48627.90      40841.50      0.190650
      173.00000      51315.40      40841.50      0.256453
      176.00000      44404.10      40841.50      0.087231
      179.00000      44254.10      40841.50      0.083558
      181.00000      44254.10      40841.50      0.083558
      184.00000      44404.10      40841.50      0.087231
      187.00000      51315.40      40841.50      0.256453
      190.00000      48627.90      40841.50      0.190650
      193.00000      44206.80      40841.50      0.082399
      196.00000      47921.30      40841.50      0.173349
      199.00000      47539.80      40841.50      0.164007
      202.00000      45577.00      40841.50      0.115948
      205.00000      44872.20      40841.50      0.098693
      208.00000      45432.70      40841.50      0.112416
      211.00000      44680.00      40841.50      0.093986
      214.00000      42689.40      40841.50      0.045246
      217.00000      42100.50      40841.50      0.030827
      220.00000      41181.60      40841.50      0.008327
      223.00000      39489.10      40841.50      -0.033114
      226.00000      39597.80      40841.50      -0.030453
      229.00000      40855.60      40841.50      0.000346
      232.00000      42852.00      40841.50      0.049227
      235.00000      41022.30      40841.50      0.004427
      238.00000      42338.20      40841.50      0.036647
      241.00000      41178.60      40841.50      0.008255
      244.00000      39879.10      40841.50      -0.023565
      247.00000      37467.60      40841.50      -0.082609
      250.00000      37791.70      40841.50      -0.074674
      253.00000      36361.60      40841.50      -0.109690
      256.00000      36209.10      40841.50      -0.113424
      259.00000      34962.20      40841.50      -0.143953
      262.00000      35262.10      40841.50      -0.136612
      265.00000      36036.10      40841.50      -0.117660
      268.00000      36369.30      40841.50      -0.109502
      272.00000      36369.30      40841.50      -0.109502
      275.00000      36036.10      40841.50      -0.117660
      278.00000      35262.10      40841.50      -0.136612
      281.00000      34962.20      40841.50      -0.143953
      284.00000      36209.10      40841.50      -0.113424
      287.00000      36361.60      40841.50      -0.109690
      290.00000      37791.70      40841.50      -0.074674
      293.00000      37467.60      40841.50      -0.082609
      296.00000      39879.10      40841.50      -0.023565
      299.00000      41178.60      40841.50      0.008255
      302.00000      42338.20      40841.50      0.036647
      305.00000      41022.30      40841.50      0.004427
      308.00000      42852.00      40841.50      0.049227
      311.00000      40855.60      40841.50      0.000346
      314.00000      39597.80      40841.50      -0.030453
      317.00000      39489.10      40841.50      -0.033114
      320.00000      41181.60      40841.50      0.008327
      323.00000      42100.50      40841.50      0.030827
      326.00000      42689.40      40841.50      0.045246
      329.00000      44680.00      40841.50      0.093986
      332.00000      45432.70      40841.50      0.112416
      335.00000      44872.20      40841.50      0.098693
      338.00000      45577.00      40841.50      0.115948
      341.00000      47539.80      40841.50      0.164007
      344.00000      47921.30      40841.50      0.173349
      347.00000      44206.80      40841.50      0.082399
      350.00000      48627.90      40841.50      0.190650
      353.00000      51315.40      40841.50      0.256453
      356.00000      44404.10      40841.50      0.087231
      359.00000      44254.10      40841.50      0.083558
       4     120       19.5900     21.2000      1.00000      0.00000
      1.00000      46496.30      44706.70      0.040030
      4.00000      45278.80      44706.70      0.012797
      7.00000      48399.90      44706.70      0.082611
      10.00000      52344.50      44706.70      0.170843
      13.00000      50309.30      44706.70      0.125320
      16.00000      49513.70      44706.70      0.107523
      19.00000      48308.90      44706.70      0.080575
      22.00000      49047.90      44706.70      0.097105
      25.00000      47833.80      44706.70      0.069948
      28.00000      46956.50      44706.70      0.050324
      31.00000      45139.20      44706.70      0.009674
      34.00000      43791.50      44706.70      -0.020469
      37.00000      42112.80      44706.70      -0.058020
      40.00000      41818.70      44706.70      -0.064598
      43.00000      42387.20      44706.70      -0.051882
      46.00000      44282.40      44706.70      -0.009491
      49.00000      43551.20      44706.70      -0.025845
      52.00000      43644.20      44706.70      -0.023766
      55.00000      43598.20      44706.70      -0.024795
      58.00000      43347.10      44706.70      -0.030412
      61.00000      44131.50      44706.70      -0.012866
      64.00000      47354.30      44706.70      0.059222
      67.00000      48755.10      44706.70      0.090555
      70.00000      47311.70      44706.70      0.058269
      73.00000      44957.50      44706.70      0.005611
      76.00000      43929.60      44706.70      -0.017381
      79.00000      41211.40      44706.70      -0.078183
      82.00000      38808.70      44706.70      -0.131925
      85.00000      38618.90      44706.70      -0.136170
      88.00000      40054.50      44706.70      -0.104060
      92.00000      40054.50      44706.70      -0.104060
      95.00000      38618.90      44706.70      -0.136170
      98.00000      38808.70      44706.70      -0.131925
      101.00000      41211.40      44706.70      -0.078183
      104.00000      43929.60      44706.70      -0.017381
      107.00000      44957.50      44706.70      0.005611
      110.00000      47311.70      44706.70      0.058269
      113.00000      48755.10      44706.70      0.090555
      116.00000      47354.30      44706.70      0.059222
      119.00000      44131.50      44706.70      -0.012866
      122.00000      43347.10      44706.70      -0.030412
      125.00000      43598.20      44706.70      -0.024795
      128.00000      43644.20      44706.70      -0.023766
      131.00000      43551.20      44706.70      -0.025845
      134.00000      44282.40      44706.70      -0.009491
      137.00000      42387.20      44706.70      -0.051882
      140.00000      41818.70      44706.70      -0.064598
      143.00000      42112.80      44706.70      -0.058020
      146.00000      43791.50      44706.70      -0.020469
      149.00000      45139.20      44706.70      0.009674
      152.00000      46956.50      44706.70      0.050324
      155.00000      47833.80      44706.70      0.069948
      158.00000      49047.90      44706.70      0.097105
      161.00000      48308.90      44706.70      0.080575
      164.00000      49513.70      44706.70      0.107523
      167.00000      50309.30      44706.70      0.125320
      170.00000      52344.50      44706.70      0.170843
      173.00000      48399.90      44706.70      0.082611
      176.00000      45278.80      44706.70      0.012797
      179.00000      46496.30      44706.70      0.040030
      181.00000      46496.30      44706.70      0.040030
      184.00000      45278.80      44706.70      0.012797
      187.00000      48399.90      44706.70      0.082611
      190.00000      52344.50      44706.70      0.170843
      193.00000      50309.30      44706.70      0.125320
      196.00000      49513.70      44706.70      0.107523
      199.00000      48308.90      44706.70      0.080575
      202.00000      49047.90      44706.70      0.097105
      205.00000      47833.80      44706.70      0.069948
      208.00000      46956.50      44706.70      0.050324
      211.00000      45139.20      44706.70      0.009674
      214.00000      43791.50      44706.70      -0.020469
      217.00000      42112.80      44706.70      -0.058020
      220.00000      41818.70      44706.70      -0.064598
      223.00000      42387.20      44706.70      -0.051882
      226.00000      44282.40      44706.70      -0.009491
      229.00000      43551.20      44706.70      -0.025845
      232.00000      43644.20      44706.70      -0.023766
      235.00000      43598.20      44706.70      -0.024795
      238.00000      43347.10      44706.70      -0.030412
      241.00000      44131.50      44706.70      -0.012866
      244.00000      47354.30      44706.70      0.059222
      247.00000      48755.10      44706.70      0.090555
      250.00000      47311.70      44706.70      0.058269
      253.00000      44957.50      44706.70      0.005611
      256.00000      43929.60      44706.70      -0.017381
      259.00000      41211.40      44706.70      -0.078183
      262.00000      38808.70      44706.70      -0.131925
      265.00000      38618.90      44706.70      -0.136170
      268.00000      40054.50      44706.70      -0.104060
      272.00000      40054.50      44706.70      -0.104060
      275.00000      38618.90      44706.70      -0.136170
      278.00000      38808.70      44706.70      -0.131925
      281.00000      41211.40      44706.70      -0.078183
      284.00000      43929.60      44706.70      -0.017381
      287.00000      44957.50      44706.70      0.005611
      290.00000      47311.70      44706.70      0.058269
      293.00000      48755.10      44706.70      0.090555
      296.00000      47354.30      44706.70      0.059222
      299.00000      44131.50      44706.70      -0.012866
      302.00000      43347.10      44706.70      -0.030412
      305.00000      43598.20      44706.70      -0.024795
      308.00000      43644.20      44706.70      -0.023766
      311.00000      43551.20      44706.70      -0.025845
      314.00000      44282.40      44706.70      -0.009491
      317.00000      42387.20      44706.70      -0.051882
      320.00000      41818.70      44706.70      -0.064598
      323.00000      42112.80      44706.70      -0.058020
      326.00000      43791.50      44706.70      -0.020469
      329.00000      45139.20      44706.70      0.009674
      332.00000      46956.50      44706.70      0.050324
      335.00000      47833.80      44706.70      0.069948
      338.00000      49047.90      44706.70      0.097105
      341.00000      48308.90      44706.70      0.080575
      344.00000      49513.70      44706.70      0.107523
      347.00000      50309.30      44706.70      0.125320
      350.00000      52344.50      44706.70      0.170843
      353.00000      48399.90      44706.70      0.082611
      356.00000      45278.80      44706.70      0.012797
      359.00000      46496.30      44706.70      0.040030
       5     120       19.5900     24.2000      1.00000      0.00000
      1.00000      40169.60      42653.40      -0.058232
      4.00000      47428.80      42653.40      0.111958
      7.00000      44604.50      42653.40      0.045743
      10.00000      45393.90      42653.40      0.064250
      13.00000      46733.90      42653.40      0.095667
      16.00000      45606.80      42653.40      0.069243
      19.00000      45290.60      42653.40      0.061829
      22.00000      44754.10      42653.40      0.049252
      25.00000      42639.10      42653.40      -0.000335
      28.00000      43194.80      42653.40      0.012694
      31.00000      43907.30      42653.40      0.029398
      34.00000      43461.50      42653.40      0.018946
      37.00000      41946.00      42653.40      -0.016585
      40.00000      43894.60      42653.40      0.029100
      43.00000      41344.50      42653.40      -0.030687
      46.00000      39531.80      42653.40      -0.073184
      49.00000      38371.10      42653.40      -0.100398
      52.00000      39481.90      42653.40      -0.074356
      55.00000      38277.70      42653.40      -0.102588
      58.00000      41365.70      42653.40      -0.030189
      61.00000      42759.90      42653.40      0.002496
      64.00000      43773.50      42653.40      0.026261
      67.00000      43604.50      42653.40      0.022300
      70.00000      43268.80      42653.40      0.014429
      73.00000      44313.90      42653.40      0.038931
      76.00000      42293.40      42653.40      -0.008440
      79.00000      41652.50      42653.40      -0.023466
      82.00000      39773.30      42653.40      -0.067522
      85.00000      40892.10      42653.40      -0.041293
      88.00000      38243.20      42653.40      -0.103397
      92.00000      38243.20      42653.40      -0.103397
      95.00000      40892.10      42653.40      -0.041293
      98.00000      39773.30      42653.40      -0.067522
      101.00000      41652.50      42653.40      -0.023466
      104.00000      42293.40      42653.40      -0.008440
      107.00000      44313.90      42653.40      0.038931
      110.00000      43268.80      42653.40      0.014429
      113.00000      43604.50      42653.40      0.022300
      116.00000      43773.50      42653.40      0.026261
      119.00000      42759.90      42653.40      0.002496
      122.00000      41365.70      42653.40      -0.030189
      125.00000      38277.70      42653.40      -0.102588
      128.00000      39481.90      42653.40      -0.074356
      131.00000      38371.10      42653.40      -0.100398
      134.00000      39531.80      42653.40      -0.073184
      137.00000      41344.50      42653.40      -0.030687
      140.00000      43894.60      42653.40      0.029100
      143.00000      41946.00      42653.40      -0.016585
      146.00000      43461.50      42653.40      0.018946
      149.00000      43907.30      42653.40      0.029398
      152.00000      43194.80      42653.40      0.012694
      155.00000      42639.10      42653.40      -0.000335
      158.00000      44754.10      42653.40      0.049252
      161.00000      45290.60      42653.40      0.061829
      164.00000      45606.80      42653.40      0.069243
      167.00000      46733.90      42653.40      0.095667
      170.00000      45393.90      42653.40      0.064250
      173.00000      44604.50      42653.40      0.045743
      176.00000      47428.80      42653.40      0.111958
      179.00000      40169.60      42653.40      -0.058232
      181.00000      40169.60      42653.40      -0.058232
      184.00000      47428.80      42653.40      0.111958
      187.00000      44604.50      42653.40      0.045743
      190.00000      45393.90      42653.40      0.064250
      193.00000      46733.90      42653.40      0.095667
      196.00000      45606.80      42653.40      0.069243
      199.00000      45290.60      42653.40      0.061829
      202.00000      44754.10      42653.40      0.049252
      205.00000      42639.10      42653.40      -0.000335
      208.00000      43194.80      42653.40      0.012694
      211.00000      43907.30      42653.40      0.029398
      214.00000      43461.50      42653.40      0.018946
      217.00000      41946.00      42653.40      -0.016585
      220.00000      43894.60      42653.40      0.029100
      223.00000      41344.50      42653.40      -0.030687
      226.00000      39531.80      42653.40      -0.073184
      229.00000      38371.10      42653.40      -0.100398
      232.00000      39481.90      42653.40      -0.074356
      235.00000      38277.70      42653.40      -0.102588
      238.00000      41365.70      42653.40      -0.030189
      241.00000      42759.90      42653.40      0.002496
      244.00000      43773.50      42653.40      0.026261
      247.00000      43604.50      42653.40      0.022300
      250.00000      43268.80      42653.40      0.014429
      253.00000      44313.90      42653.40      0.038931
      256.00000      42293.40      42653.40      -0.008440
      259.00000      41652.50      42653.40      -0.023466
      262.00000      39773.30      42653.40      -0.067522
      265.00000      40892.10      42653.40      -0.041293
      268.00000      38243.20      42653.40      -0.103397
      272.00000      38243.20      42653.40      -0.103397
      275.00000      40892.10      42653.40      -0.041293
      278.00000      39773.30      42653.40      -0.067522
      281.00000      41652.50      42653.40      -0.023466
      284.00000      42293.40      42653.40      -0.008440
      287.00000      44313.90      42653.40      0.038931
      290.00000      43268.80      42653.40      0.014429
      293.00000      43604.50      42653.40      0.022300
      296.00000      43773.50      42653.40      0.026261
      299.00000      42759.90      42653.40      0.002496
      302.00000      41365.70      42653.40      -0.030189
      305.00000      38277.70      42653.40      -0.102588
      308.00000      39481.90      42653.40      -0.074356
      311.00000      38371.10      42653.40      -0.100398
      314.00000      39531.80      42653.40      -0.073184
      317.00000      41344.50      42653.40      -0.030687
      320.00000      43894.60      42653.40      0.029100
      323.00000      41946.00      42653.40      -0.016585
      326.00000      43461.50      42653.40      0.018946
      329.00000      43907.30      42653.40      0.029398
      332.00000      43194.80      42653.40      0.012694
      335.00000      42639.10      42653.40      -0.000335
      338.00000      44754.10      42653.40      0.049252
      341.00000      45290.60      42653.40      0.061829
      344.00000      45606.80      42653.40      0.069243
      347.00000      46733.90      42653.40      0.095667
      350.00000      45393.90      42653.40      0.064250
      353.00000      44604.50      42653.40      0.045743
      356.00000      47428.80      42653.40      0.111958
      359.00000      40169.60      42653.40      -0.058232
       6     120       19.5900     27.2000      1.00000      0.00000
      1.00000      43015.60      41635.40      0.033149
      4.00000      42385.40      41635.40      0.018014
      7.00000      40704.30      41635.40      -0.022364
      10.00000      43771.60      41635.40      0.051308
      13.00000      48997.40      41635.40      0.176821
      16.00000      42569.60      41635.40      0.022438
      19.00000      42422.50      41635.40      0.018906
      22.00000      41516.80      41635.40      -0.002847
      25.00000      43346.60      41635.40      0.041100
      28.00000      43738.20      41635.40      0.050505
      31.00000      43566.70      41635.40      0.046387
      34.00000      42818.10      41635.40      0.028407
      37.00000      39683.50      41635.40      -0.046880
      40.00000      38683.20      41635.40      -0.070905
      43.00000      37728.80      41635.40      -0.093827
      46.00000      40097.50      41635.40      -0.036936
      49.00000      41104.00      41635.40      -0.012762
      52.00000      43764.00      41635.40      0.051126
      55.00000      43848.00      41635.40      0.053142
      58.00000      44613.70      41635.40      0.071533
      61.00000      43299.30      41635.40      0.039963
      64.00000      40722.40      41635.40      -0.021928
      67.00000      40961.20      41635.40      -0.016193
      70.00000      40985.60      41635.40      -0.015607
      73.00000      39453.90      41635.40      -0.052395
      76.00000      39252.90      41635.40      -0.057222
      79.00000      40816.60      41635.40      -0.019666
      82.00000      40007.90      41635.40      -0.039088
      85.00000      38312.80      41635.40      -0.079802
      88.00000      36756.50      41635.40      -0.117182
      92.00000      36756.50      41635.40      -0.117182
      95.00000      38312.80      41635.40      -0.079802
      98.00000      40007.90      41635.40      -0.039088
      101.00000      40816.60      41635.40      -0.019666
      104.00000      39252.90      41635.40      -0.057222
      107.00000      39453.90      41635.40      -0.052395
      110.00000      40985.60      41635.40      -0.015607
      113.00000      40961.20      41635.40      -0.016193
      116.00000      40722.40      41635.40      -0.021928
      119.00000      43299.30      41635.40      0.039963
      122.00000      44613.70      41635.40      0.071533
      125.00000      43848.00      41635.40      0.053142
      128.00000      43764.00      41635.40      0.051126
      131.00000      41104.00      41635.40      -0.012762
      134.00000      40097.50      41635.40      -0.036936
      137.00000      37728.80      41635.40      -0.093827
      140.00000      38683.20      41635.40      -0.070905
      143.00000      39683.50      41635.40      -0.046880
      146.00000      42818.10      41635.40      0.028407
      149.00000      43566.70      41635.40      0.046387
      152.00000      43738.20      41635.40      0.050505
      155.00000      43346.60      41635.40      0.041100
      158.00000      41516.80      41635.40      -0.002847
      161.00000      42422.50      41635.40      0.018906
      164.00000      42569.60      41635.40      0.022438
      167.00000      48997.40      41635.40      0.176821
      170.00000      43771.60      41635.40      0.051308
      173.00000      40704.30      41635.40      -0.022364
      176.00000      42385.40      41635.40      0.018014
      179.00000      43015.60      41635.40      0.033149
      181.00000      43015.60      41635.40      0.033149
      184.00000      42385.40      41635.40      0.018014
      187.00000      40704.30      41635.40      -0.022364
      190.00000      43771.60      41635.40      0.051308
      193.00000      48997.40      41635.40      0.176821
      196.00000      42569.60      41635.40      0.022438
      199.00000      42422.50      41635.40      0.018906
      202.00000      41516.80      41635.40      -0.002847
      205.00000      43346.60      41635.40      0.041100
      208.00000      43738.20      41635.40      0.050505
      211.00000      43566.70      41635.40      0.046387
      214.00000      42818.10      41635.40      0.028407
      217.00000      39683.50      41635.40      -0.046880
      220.00000      38683.20      41635.40      -0.070905
      223.00000      37728.80      41635.40      -0.093827
      226.00000      40097.50      41635.40      -0.036936
      229.00000      41104.00      41635.40      -0.012762
      232.00000      43764.00      41635.40      0.051126
      235.00000      43848.00      41635.40      0.053142
      238.00000      44613.70      41635.40      0.071533
      241.00000      43299.30      41635.40      0.039963
      244.00000      40722.40      41635.40      -0.021928
      247.00000      40961.20      41635.40      -0.016193
      250.00000      40985.60      41635.40      -0.015607
      253.00000      39453.90      41635.40      -0.052395
      256.00000      39252.90      41635.40      -0.057222
      259.00000      40816.60      41635.40      -0.019666
      262.00000      40007.90      41635.40      -0.039088
      265.00000      38312.80      41635.40      -0.079802
      268.00000      36756.50      41635.40      -0.117182
      272.00000      36756.50      41635.40      -0.117182
      275.00000      38312.80      41635.40      -0.079802
      278.00000      40007.90      41635.40      -0.039088
      281.00000      40816.60      41635.40      -0.019666
      284.00000      39252.90      41635.40      -0.057222
      287.00000      39453.90      41635.40      -0.052395
      290.00000      40985.60      41635.40      -0.015607
      293.00000      40961.20      41635.40      -0.016193
      296.00000      40722.40      41635.40      -0.021928
      299.00000      43299.30      41635.40      0.039963
      302.00000      44613.70      41635.40      0.071533
      305.00000      43848.00      41635.40      0.053142
      308.00000      43764.00      41635.40      0.051126
      311.00000      41104.00      41635.40      -0.012762
      314.00000      40097.50      41635.40      -0.036936
      317.00000      37728.80      41635.40      -0.093827
      320.00000      38683.20      41635.40      -0.070905
      323.00000      39683.50      41635.40      -0.046880
      326.00000      42818.10      41635.40      0.028407
      329.00000      43566.70      41635.40      0.046387
      332.00000      43738.20      41635.40      0.050505
      335.00000      43346.60      41635.40      0.041100
      338.00000      41516.80      41635.40      -0.002847
      341.00000      42422.50      41635.40      0.018906
      344.00000      42569.60      41635.40      0.022438
      347.00000      48997.40      41635.40      0.176821
      350.00000      43771.60      41635.40      0.051308
      353.00000      40704.30      41635.40      -0.022364
      356.00000      42385.40      41635.40      0.018014
      359.00000      43015.60      41635.40      0.033149
       7     120       19.5900     30.2000      1.00000      0.00000
      1.00000      88264.40      94706.40      -0.068021
      4.00000      104239.00      94706.40      0.100656
      7.00000      97850.60      94706.40      0.033199
      10.00000      97051.70      94706.40      0.024764
      13.00000      97918.50      94706.40      0.033917
      16.00000      95786.20      94706.40      0.011402
      19.00000      95719.80      94706.40      0.010701
      22.00000      93896.50      94706.40      -0.008551
      25.00000      98592.80      94706.40      0.041036
      28.00000      99109.00      94706.40      0.046488
      31.00000      96900.40      94706.40      0.023167
      34.00000      94122.30      94706.40      -0.006167
      37.00000      96919.40      94706.40      0.023367
      40.00000      91074.00      94706.40      -0.038354
      43.00000      89103.50      94706.40      -0.059160
      46.00000      89482.10      94706.40      -0.055163
      49.00000      94333.50      94706.40      -0.003937
      52.00000      92495.20      94706.40      -0.023348
      55.00000      98818.40      94706.40      0.043418
      58.00000      101529.00      94706.40      0.072041
      61.00000      106021.00      94706.40      0.119466
      64.00000      102558.00      94706.40      0.082907
      67.00000      101494.00      94706.40      0.071672
      70.00000      99173.20      94706.40      0.047165
      73.00000      96071.80      94706.40      0.014418
      76.00000      96321.10      94706.40      0.017050
      79.00000      95116.10      94706.40      0.004327
      82.00000      95182.30      94706.40      0.005025
      85.00000      96445.70      94706.40      0.018365
      88.00000      95994.90      94706.40      0.013606
      92.00000      95994.90      94706.40      0.013606
      95.00000      96445.70      94706.40      0.018365
      98.00000      95182.30      94706.40      0.005025
      101.00000      95116.10      94706.40      0.004327
      104.00000      96321.10      94706.40      0.017050
      107.00000      96071.80      94706.40      0.014418
      110.00000      99173.20      94706.40      0.047165
      113.00000      101494.00      94706.40      0.071672
      116.00000      102558.00      94706.40      0.082907
      119.00000      106021.00      94706.40      0.119466
      122.00000      101529.00      94706.40      0.072041
      125.00000      98818.40      94706.40      0.043418
      128.00000      92495.20      94706.40      -0.023348
      131.00000      94333.50      94706.40      -0.003937
      134.00000      89482.10      94706.40      -0.055163
      137.00000      89103.50      94706.40      -0.059160
      140.00000      91074.00      94706.40      -0.038354
      143.00000      96919.40      94706.40      0.023367
      146.00000      94122.30      94706.40      -0.006167
      149.00000      96900.40      94706.40      0.023167
      152.00000      99109.00      94706.40      0.046488
      155.00000      98592.80      94706.40      0.041036
      158.00000      93896.50      94706.40      -0.008551
      161.00000      95719.80      94706.40      0.010701
      164.00000      95786.20      94706.40      0.011402
      167.00000      97918.50      94706.40      0.033917
      170.00000      97051.70      94706.40      0.024764
      173.00000      97850.60      94706.40      0.033199
      176.00000      104239.00      94706.40      0.100656
      179.00000      88264.40      94706.40      -0.068021
      181.00000      88264.40      94706.40      -0.068021
      184.00000      104239.00      94706.40      0.100656
      187.00000      97850.60      94706.40      0.033199
      190.00000      97051.70      94706.40      0.024764
      193.00000      97918.50      94706.40      0.033917
      196.00000      95786.20      94706.40      0.011402
      199.00000      95719.80      94706.40      0.010701
      202.00000      93896.50      94706.40      -0.008551
      205.00000      98592.80      94706.40      0.041036
      208.00000      99109.00      94706.40      0.046488
      211.00000      96900.40      94706.40      0.023167
      214.00000      94122.30      94706.40      -0.006167
      217.00000      96919.40      94706.40      0.023367
      220.00000      91074.00      94706.40      -0.038354
      223.00000      89103.50      94706.40      -0.059160
      226.00000      89482.10      94706.40      -0.055163
      229.00000      94333.50      94706.40      -0.003937
      232.00000      92495.20      94706.40      -0.023348
      235.00000      98818.40      94706.40      0.043418
      238.00000      101529.00      94706.40      0.072041
      241.00000      106021.00      94706.40      0.119466
      244.00000      102558.00      94706.40      0.082907
      247.00000      101494.00      94706.40      0.071672
      250.00000      99173.20      94706.40      0.047165
      253.00000      96071.80      94706.40      0.014418
      256.00000      96321.10      94706.40      0.017050
      259.00000      95116.10      94706.40      0.004327
      262.00000      95182.30      94706.40      0.005025
      265.00000      96445.70      94706.40      0.018365
      268.00000      95994.90      94706.40      0.013606
      272.00000      95994.90      94706.40      0.013606
      275.00000      96445.70      94706.40      0.018365
      278.00000      95182.30      94706.40      0.005025
      281.00000      95116.10      94706.40      0.004327
      284.00000      96321.10      94706.40      0.017050
      287.00000      96071.80      94706.40      0.014418
      290.00000      99173.20      94706.40      0.047165
      293.00000      101494.00      94706.40      0.071672
      296.00000      102558.00      94706.40      0.082907
      299.00000      106021.00      94706.40      0.119466
      302.00000      101529.00      94706.40      0.072041
      305.00000      98818.40      94706.40      0.043418
      308.00000      92495.20      94706.40      -0.023348
      311.00000      94333.50      94706.40      -0.003937
      314.00000      89482.10      94706.40      -0.055163
      317.00000      89103.50      94706.40      -0.059160
      320.00000      91074.00      94706.40      -0.038354
      323.00000      96919.40      94706.40      0.023367
      326.00000      94122.30      94706.40      -0.006167
      329.00000      96900.40      94706.40      0.023167
      332.00000      99109.00      94706.40      0.046488
      335.00000      98592.80      94706.40      0.041036
      338.00000      93896.50      94706.40      -0.008551
      341.00000      95719.80      94706.40      0.010701
      344.00000      95786.20      94706.40      0.011402
      347.00000      97918.50      94706.40      0.033917
      350.00000      97051.70      94706.40      0.024764
      353.00000      97850.60      94706.40      0.033199
      356.00000      104239.00      94706.40      0.100656
      359.00000      88264.40      94706.40      -0.068021
       8     120       19.5900     33.2000      1.00000      0.00000
      1.00000      92992.30      94151.40      -0.012311
      4.00000      91889.10      94151.40      -0.024028
      7.00000      93785.30      94151.40      -0.003888
      10.00000      84659.30      94151.40      -0.100817
      13.00000      88714.60      94151.40      -0.057745
      16.00000      89510.20      94151.40      -0.049294
      19.00000      92584.80      94151.40      -0.016639
      22.00000      93201.30      94151.40      -0.010090
      25.00000      94165.60      94151.40      0.000151
      28.00000      94643.20      94151.40      0.005224
      31.00000      92462.40      94151.40      -0.017939
      34.00000      92622.60      94151.40      -0.016237
      37.00000      90238.40      94151.40      -0.041560
      40.00000      90382.10      94151.40      -0.040035
      43.00000      89866.70      94151.40      -0.045509
      46.00000      92711.30      94151.40      -0.015295
      49.00000      93510.20      94151.40      -0.006810
      52.00000      98065.80      94151.40      0.041576
      55.00000      99418.00      94151.40      0.055938
      58.00000      103607.00      94151.40      0.100434
      61.00000      101325.00      94151.40      0.076194
      64.00000      102655.00      94151.40      0.090317
      67.00000      103146.00      94151.40      0.095535
      70.00000      101269.00      94151.40      0.075595
      73.00000      100620.00      94151.40      0.068703
      76.00000      101546.00      94151.40      0.078542
      79.00000      99568.80      94151.40      0.057539
      82.00000      94772.40      94151.40      0.006595
      85.00000      97946.30      94151.40      0.040307
      88.00000      93655.60      94151.40      -0.005266
      92.00000      93655.60      94151.40      -0.005266
      95.00000      97946.30      94151.40      0.040307
      98.00000      94772.40      94151.40      0.006595
      101.00000      99568.80      94151.40      0.057539
      104.00000      101546.00      94151.40      0.078542
      107.00000      100620.00      94151.40      0.068703
      110.00000      101269.00      94151.40      0.075595
      113.00000      103146.00      94151.40      0.095535
      116.00000      102655.00      94151.40      0.090317
      119.00000      101325.00      94151.40      0.076194
      122.00000      103607.00      94151.40      0.100434
      125.00000      99418.00      94151.40      0.055938
      128.00000      98065.80      94151.40      0.041576
      131.00000      93510.20      94151.40      -0.006810
      134.00000      92711.30      94151.40      -0.015295
      137.00000      89866.70      94151.40      -0.045509
      140.00000      90382.10      94151.40      -0.040035
      143.00000      90238.40      94151.40      -0.041560
      146.00000      92622.60      94151.40      -0.016237
      149.00000      92462.40      94151.40      -0.017939
      152.00000      94643.20      94151.40      0.005224
      155.00000      94165.60      94151.40      0.000151
      158.00000      93201.30      94151.40      -0.010090
      161.00000      92584.80      94151.40      -0.016639
      164.00000      89510.20      94151.40      -0.049294
      167.00000      88714.60      94151.40      -0.057745
      170.00000      84659.30      94151.40      -0.100817
      173.00000      93785.30      94151.40      -0.003888
      176.00000      91889.10      94151.40      -0.024028
      179.00000      92992.30      94151.40      -0.012311
      181.00000      92992.30      94151.40      -0.012311
      184.00000      91889.10      94151.40      -0.024028
      187.00000      93785.30      94151.40      -0.003888
      190.00000      84659.30      94151.40      -0.100817
      193.00000      88714.60      94151.40      -0.057745
      196.00000      89510.20      94151.40      -0.049294
      199.00000      92584.80      94151.40      -0.016639
      202.00000      93201.30      94151.40      -0.010090
      205.00000      94165.60      94151.40      0.000151
      208.00000      94643.20      94151.40      0.005224
      211.00000      92462.40      94151.40      -0.017939
      214.00000      92622.60      94151.40      -0.016237
      217.00000      90238.40      94151.40      -0.041560
      220.00000      90382.10      94151.40      -0.040035
      223.00000      89866.70      94151.40      -0.045509
      226.00000      92711.30      94151.40      -0.015295
      229.00000      93510.20      94151.40      -0.006810
      232.00000      98065.80      94151.40      0.041576
      235.00000      99418.00      94151.40      0.055938
      238.00000      103607.00      94151.40      0.100434
      241.00000      101325.00      94151.40      0.076194
      244.00000      102655.00      94151.40      0.090317
      247.00000      103146.00      94151.40      0.095535
      250.00000      101269.00      94151.40      0.075595
      253.00000      100620.00      94151.40      0.068703
      256.00000      101546.00      94151.40      0.078542
      259.00000      99568.80      94151.40      0.057539
      262.00000      94772.40      94151.40      0.006595
      265.00000      97946.30      94151.40      0.040307
      268.00000      93655.60      94151.40      -0.005266
      272.00000      93655.60      94151.40      -0.005266
      275.00000      97946.30      94151.40      0.040307
      278.00000      94772.40      94151.40      0.006595
      281.00000      99568.80      94151.40      0.057539
      284.00000      101546.00      94151.40      0.078542
      287.00000      100620.00      94151.40      0.068703
      290.00000      101269.00      94151.40      0.075595
      293.00000      103146.00      94151.40      0.095535
      296.00000      102655.00      94151.40      0.090317
      299.00000      101325.00      94151.40      0.076194
      302.00000      103607.00      94151.40      0.100434
      305.00000      99418.00      94151.40      0.055938
      308.00000      98065.80      94151.40      0.041576
      311.00000      93510.20      94151.40      -0.006810
      314.00000      92711.30      94151.40      -0.015295
      317.00000      89866.70      94151.40      -0.045509
      320.00000      90382.10      94151.40      -0.040035
      323.00000      90238.40      94151.40      -0.041560
      326.00000      92622.60      94151.40      -0.016237
      329.00000      92462.40      94151.40      -0.017939
      332.00000      94643.20      94151.40      0.005224
      335.00000      94165.60      94151.40      0.000151
      338.00000      93201.30      94151.40      -0.010090
      341.00000      92584.80      94151.40      -0.016639
      344.00000      89510.20      94151.40      -0.049294
      347.00000      88714.60      94151.40      -0.057745
      350.00000      84659.30      94151.40      -0.100817
      353.00000      93785.30      94151.40      -0.003888
      356.00000      91889.10      94151.40      -0.024028
      359.00000      92992.30      94151.40      -0.012311
       9     120       19.5900     36.2000      1.00000      0.00000
      1.00000      77516.80      79258.90      -0.021980
      4.00000      74429.20      79258.90      -0.060935
      7.00000      79174.20      79258.90      -0.001069
      10.00000      73124.70      79258.90      -0.077394
      13.00000      77509.50      79258.90      -0.022072
      16.00000      75823.40      79258.90      -0.043346
      19.00000      76470.60      79258.90      -0.035179
      22.00000      76231.90      79258.90      -0.038191
      25.00000      74482.30      79258.90      -0.060265
      28.00000      71000.20      79258.90      -0.104199
      31.00000      70128.80      79258.90      -0.115193
      34.00000      69832.80      79258.90      -0.118928
      37.00000      70894.50      79258.90      -0.105532
      40.00000      74020.80      79258.90      -0.066089
      43.00000      78573.90      79258.90      -0.008642
      46.00000      81559.00      79258.90      0.029021
      49.00000      84519.70      79258.90      0.066376
      52.00000      86470.10      79258.90      0.090983
      55.00000      88303.10      79258.90      0.114109
      58.00000      89214.70      79258.90      0.125611
      61.00000      87691.20      79258.90      0.106390
      64.00000      87093.80      79258.90      0.098853
      67.00000      86782.10      79258.90      0.094919
      70.00000      85754.10      79258.90      0.081949
      73.00000      85072.10      79258.90      0.073344
      76.00000      85418.40      79258.90      0.077714
      79.00000      83960.80      79258.90      0.059323
      82.00000      81394.90      79258.90      0.026949
      85.00000      80739.70      79258.90      0.018684
      88.00000      78528.20      79258.90      -0.009219
      92.00000      78528.20      79258.90      -0.009219
      95.00000      80739.70      79258.90      0.018684
      98.00000      81394.90      79258.90      0.026949
      101.00000      83960.80      79258.90      0.059323
      104.00000      85418.40      79258.90      0.077714
      107.00000      85072.10      79258.90      0.073344
      110.00000      85754.10      79258.90      0.081949
      113.00000      86782.10      79258.90      0.094919
      116.00000      87093.80      79258.90      0.098853
      119.00000      87691.20      79258.90      0.106390
      122.00000      89214.70      79258.90      0.125611
      125.00000      88303.10      79258.90      0.114109
      128.00000      86470.10      79258.90      0.090983
      131.00000      84519.70      79258.90      0.066376
      134.00000      81559.00      79258.90      0.029021
      137.00000      78573.90      79258.90      -0.008642
      140.00000      74020.80      79258.90      -0.066089
      143.00000      70894.50      79258.90      -0.105532
      146.00000      69832.80      79258.90      -0.118928
      149.00000      70128.80      79258.90      -0.115193
      152.00000      71000.20      79258.90      -0.104199
      155.00000      74482.30      79258.90      -0.060265
      158.00000      76231.90      79258.90      -0.038191
      161.00000      76470.60      79258.90      -0.035179
      164.00000      75823.40      79258.90      -0.043346
      167.00000      77509.50      79258.90      -0.022072
      170.00000      73124.70      79258.90      -0.077394
      173.00000      79174.20      79258.90      -0.001069
      176.00000      74429.20      79258.90      -0.060935
      179.00000      77516.80      79258.90      -0.021980
      181.00000      77516.80      79258.90      -0.021980
      184.00000      74429.20      79258.90      -0.060935
      187.00000      79174.20      79258.90      -0.001069
      190.00000      73124.70      79258.90      -0.077394
      193.00000      77509.50      79258.90      -0.022072
      196.00000      75823.40      79258.90      -0.043346
      199.00000      76470.60      79258.90      -0.035179
      202.00000      76231.90      79258.90      -0.038191
      205.00000      74482.30      79258.90      -0.060265
      208.00000      71000.20      79258.90      -0.104199
      211.00000      70128.80      79258.90      -0.115193
      214.00000      69832.80      79258.90      -0.118928
      217.00000      70894.50      79258.90      -0.105532
      220.00000      74020.80      79258.90      -0.066089
      223.00000      78573.90      79258.90      -0.008642
      226.00000      81559.00      79258.90      0.029021
      229.00000      84519.70      79258.90      0.066376
      232.00000      86470.10      79258.90      0.090983
      235.00000      88303.10      79258.90      0.114109
      238.00000      89214.70      79258.90      0.125611
      241.00000      87691.20      79258.90      0.106390
      244.00000      87093.80      79258.90      0.098853
      247.00000      86782.10      79258.90      0.094919
      250.00000      85754.10      79258.90      0.081949
      253.00000      85072.10      79258.90      0.073344
      256.00000      85418.40      79258.90      0.077714
      259.00000      83960.80      79258.90      0.059323
      262.00000      81394.90      79258.90      0.026949
      265.00000      80739.70      79258.90      0.018684
      268.00000      78528.20      79258.90      -0.009219
      272.00000      78528.20      79258.90      -0.009219
      275.00000      80739.70      79258.90      0.018684
      278.00000      81394.90      79258.90      0.026949
      281.00000      83960.80      79258.90      0.059323
      284.00000      85418.40      79258.90      0.077714
      287.00000      85072.10      79258.90      0.073344
      290.00000      85754.10      79258.90      0.081949
      293.00000      86782.10      79258.90      0.094919
      296.00000      87093.80      79258.90      0.098853
      299.00000      87691.20      79258.90      0.106390
      302.00000      89214.70      79258.90      0.125611
      305.00000      88303.10      79258.90      0.114109
      308.00000      86470.10      79258.90      0.090983
      311.00000      84519.70      79258.90      0.066376
      314.00000      81559.00      79258.90      0.029021
      317.00000      78573.90      79258.90      -0.008642
      320.00000      74020.80      79258.90      -0.066089
      323.00000      70894.50      79258.90      -0.105532
      326.00000      69832.80      79258.90      -0.118928
      329.00000      70128.80      79258.90      -0.115193
      332.00000      71000.20      79258.90      -0.104199
      335.00000      74482.30      79258.90      -0.060265
      338.00000      76231.90      79258.90      -0.038191
      341.00000      76470.60      79258.90      -0.035179
      344.00000      75823.40      79258.90      -0.043346
      347.00000      77509.50      79258.90      -0.022072
      350.00000      73124.70      79258.90      -0.077394
      353.00000      79174.20      79258.90      -0.001069
      356.00000      74429.20      79258.90      -0.060935
      359.00000      77516.80      79258.90      -0.021980
       10     120       19.5900     39.2000      1.00000      0.00000
      1.00000      72838.00      79875.00      -0.088100
      4.00000      71318.20      79875.00      -0.107127
      7.00000      73541.30      79875.00      -0.079295
      10.00000      68744.30      79875.00      -0.139352
      13.00000      69691.60      79875.00      -0.127492
      16.00000      71577.00      79875.00      -0.103887
      19.00000      73436.90      79875.00      -0.080603
      22.00000      75476.00      79875.00      -0.055074
      25.00000      72392.90      79875.00      -0.093673
      28.00000      71515.90      79875.00      -0.104652
      31.00000      72953.30      79875.00      -0.086657
      34.00000      72121.00      79875.00      -0.097077
      37.00000      75789.70      79875.00      -0.051146
      40.00000      78562.90      79875.00      -0.016427
      43.00000      81814.70      79875.00      0.024284
      46.00000      83112.60      79875.00      0.040533
      49.00000      87217.90      79875.00      0.091930
      52.00000      87918.40      79875.00      0.100699
      55.00000      91621.80      79875.00      0.147064
      58.00000      93618.70      79875.00      0.172065
      61.00000      94933.30      79875.00      0.188523
      64.00000      95314.90      79875.00      0.193301
      67.00000      95090.20      79875.00      0.190487
      70.00000      92456.80      79875.00      0.157519
      73.00000      91741.80      79875.00      0.148567
      76.00000      89637.50      79875.00      0.122222
      79.00000      86095.60      79875.00      0.077879
      82.00000      84047.30      79875.00      0.052235
      85.00000      83558.20      79875.00      0.046112
      88.00000      79695.40      79875.00      -0.002249
      92.00000      79695.40      79875.00      -0.002249
      95.00000      83558.20      79875.00      0.046112
      98.00000      84047.30      79875.00      0.052235
      101.00000      86095.60      79875.00      0.077879
      104.00000      89637.50      79875.00      0.122222
      107.00000      91741.80      79875.00      0.148567
      110.00000      92456.80      79875.00      0.157519
      113.00000      95090.20      79875.00      0.190487
      116.00000      95314.90      79875.00      0.193301
      119.00000      94933.30      79875.00      0.188523
      122.00000      93618.70      79875.00      0.172065
      125.00000      91621.80      79875.00      0.147064
      128.00000      87918.40      79875.00      0.100699
      131.00000      87217.90      79875.00      0.091930
      134.00000      83112.60      79875.00      0.040533
      137.00000      81814.70      79875.00      0.024284
      140.00000      78562.90      79875.00      -0.016427
      143.00000      75789.70      79875.00      -0.051146
      146.00000      72121.00      79875.00      -0.097077
      149.00000      72953.30      79875.00      -0.086657
      152.00000      71515.90      79875.00      -0.104652
      155.00000      72392.90      79875.00      -0.093673
      158.00000      75476.00      79875.00      -0.055074
      161.00000      73436.90      79875.00      -0.080603
      164.00000      71577.00      79875.00      -0.103887
      167.00000      69691.60      79875.00      -0.127492
      170.00000      68744.30      79875.00      -0.139352
      173.00000      73541.30      79875.00      -0.079295
      176.00000      71318.20      79875.00      -0.107127
      179.00000      72838.00      79875.00      -0.088100
      181.00000      72838.00      79875.00      -0.088100
      184.00000      71318.20      79875.00      -0.107127
      187.00000      73541.30      79875.00      -0.079295
      190.00000      68744.30      79875.00      -0.139352
      193.00000      69691.60      79875.00      -0.127492
      196.00000      71577.00      79875.00      -0.103887
      199.00000      73436.90      79875.00      -0.080603
      202.00000      75476.00      79875.00      -0.055074
      205.00000      72392.90      79875.00      -0.093673
      208.00000      71515.90      79875.00      -0.104652
      211.00000      72953.30      79875.00      -0.086657
      214.00000      72121.00      79875.00      -0.097077
      217.00000      75789.70      79875.00      -0.051146
      220.00000      78562.90      79875.00      -0.016427
      223.00000      81814.70      79875.00      0.024284
      226.00000      83112.60      79875.00      0.040533
      229.00000      87217.90      79875.00      0.091930
      232.00000      87918.40      79875.00      0.100699
      235.00000      91621.80      79875.00      0.147064
      238.00000      93618.70      79875.00      0.172065
      241.00000      94933.30      79875.00      0.188523
      244.00000      95314.90      79875.00      0.193301
      247.00000      95090.20      79875.00      0.190487
      250.00000      92456.80      79875.00      0.157519
      253.00000      91741.80      79875.00      0.148567
      256.00000      89637.50      79875.00      0.122222
      259.00000      86095.60      79875.00      0.077879
      262.00000      84047.30      79875.00      0.052235
      265.00000      83558.20      79875.00      0.046112
      268.00000      79695.40      79875.00      -0.002249
      272.00000      79695.40      79875.00      -0.002249
      275.00000      83558.20      79875.00      0.046112
      278.00000      84047.30      79875.00      0.052235
      281.00000      86095.60      79875.00      0.077879
      284.00000      89637.50      79875.00      0.122222
      287.00000      91741.80      79875.00      0.148567
      290.00000      92456.80      79875.00      0.157519
      293.00000      95090.20      79875.00      0.190487
      296.00000      95314.90      79875.00      0.193301
      299.00000      94933.30      79875.00      0.188523
      302.00000      93618.70      79875.00      0.172065
      305.00000      91621.80      79875.00      0.147064
      308.00000      87918.40      79875.00      0.100699
      311.00000      87217.90      79875.00      0.091930
      314.00000      83112.60      79875.00      0.040533
      317.00000      81814.70      79875.00      0.024284
      320.00000      78562.90      79875.00      -0.016427
      323.00000      75789.70      79875.00      -0.051146
      326.00000      72121.00      79875.00      -0.097077
      329.00000      72953.30      79875.00      -0.086657
      332.00000      71515.90      79875.00      -0.104652
      335.00000      72392.90      79875.00      -0.093673
      338.00000      75476.00      79875.00      -0.055074
      341.00000      73436.90      79875.00      -0.080603
      344.00000      71577.00      79875.00      -0.103887
      347.00000      69691.60      79875.00      -0.127492
      350.00000      68744.30      79875.00      -0.139352
      353.00000      73541.30      79875.00      -0.079295
      356.00000      71318.20      79875.00      -0.107127
      359.00000      72838.00      79875.00      -0.088100
       11     120       19.5900     42.2000      1.00000      0.00000
      1.00000      61910.60      73846.40      -0.161630
      4.00000      61229.90      73846.40      -0.170848
      7.00000      62703.30      73846.40      -0.150896
      10.00000      60807.90      73846.40      -0.176563
      13.00000      66413.80      73846.40      -0.100649
      16.00000      63678.80      73846.40      -0.137686
      19.00000      64197.10      73846.40      -0.130667
      22.00000      63076.60      73846.40      -0.145840
      25.00000      61837.00      73846.40      -0.162627
      28.00000      61521.20      73846.40      -0.166904
      31.00000      62514.50      73846.40      -0.153452
      34.00000      64832.40      73846.40      -0.122064
      37.00000      67958.20      73846.40      -0.079736
      40.00000      69800.30      73846.40      -0.054790
      43.00000      71728.10      73846.40      -0.028686
      46.00000      74902.90      73846.40      0.014307
      49.00000      78943.50      73846.40      0.069023
      52.00000      82244.30      73846.40      0.113721
      55.00000      85720.30      73846.40      0.160792
      58.00000      88683.80      73846.40      0.200922
      61.00000      92025.00      73846.40      0.246167
      64.00000      91623.70      73846.40      0.240734
      67.00000      89791.50      73846.40      0.215922
      70.00000      87583.80      73846.40      0.186027
      73.00000      85296.80      73846.40      0.155057
      76.00000      80607.50      73846.40      0.091557
      79.00000      78531.50      73846.40      0.063444
      82.00000      77259.90      73846.40      0.046225
      85.00000      77318.80      73846.40      0.047022
      88.00000      76363.50      73846.40      0.034086
      92.00000      76363.50      73846.40      0.034086
      95.00000      77318.80      73846.40      0.047022
      98.00000      77259.90      73846.40      0.046225
      101.00000      78531.50      73846.40      0.063444
      104.00000      80607.50      73846.40      0.091557
      107.00000      85296.80      73846.40      0.155057
      110.00000      87583.80      73846.40      0.186027
      113.00000      89791.50      73846.40      0.215922
      116.00000      91623.70      73846.40      0.240734
      119.00000      92025.00      73846.40      0.246167
      122.00000      88683.80      73846.40      0.200922
      125.00000      85720.30      73846.40      0.160792
      128.00000      82244.30      73846.40      0.113721
      131.00000      78943.50      73846.40      0.069023
      134.00000      74902.90      73846.40      0.014307
      137.00000      71728.10      73846.40      -0.028686
      140.00000      69800.30      73846.40      -0.054790
      143.00000      67958.20      73846.40      -0.079736
      146.00000      64832.40      73846.40      -0.122064
      149.00000      62514.50      73846.40      -0.153452
      152.00000      61521.20      73846.40      -0.166904
      155.00000      61837.00      73846.40      -0.162627
      158.00000      63076.60      73846.40      -0.145840
      161.00000      64197.10      73846.40      -0.130667
      164.00000      63678.80      73846.40      -0.137686
      167.00000      66413.80      73846.40      -0.100649
      170.00000      60807.90      73846.40      -0.176563
      173.00000      62703.30      73846.40      -0.150896
      176.00000      61229.90      73846.40      -0.170848
      179.00000      61910.60      73846.40      -0.161630
      181.00000      61910.60      73846.40      -0.161630
      184.00000      61229.90      73846.40      -0.170848
      187.00000      62703.30      73846.40      -0.150896
      190.00000      60807.90      73846.40      -0.176563
      193.00000      66413.80      73846.40      -0.100649
      196.00000      63678.80      73846.40      -0.137686
      199.00000      64197.10      73846.40      -0.130667
      202.00000      63076.60      73846.40      -0.145840
      205.00000      61837.00      73846.40      -0.162627
      208.00000      61521.20      73846.40      -0.166904
      211.00000      62514.50      73846.40      -0.153452
      214.00000      64832.40      73846.40      -0.122064
      217.00000      67958.20      73846.40      -0.079736
      220.00000      69800.30      73846.40      -0.054790
      223.00000      71728.10      73846.40      -0.028686
      226.00000      74902.90      73846.40      0.014307
      229.00000      78943.50      73846.40      0.069023
      232.00000      82244.30      73846.40      0.113721
      235.00000      85720.30      73846.40      0.160792
      238.00000      88683.80      73846.40      0.200922
      241.00000      92025.00      73846.40      0.246167
      244.00000      91623.70      73846.40      0.240734
      247.00000      89791.50      73846.40      0.215922
      250.00000      87583.80      73846.40      0.186027
      253.00000      85296.80      73846.40      0.155057
      256.00000      80607.50      73846.40      0.091557
      259.00000      78531.50      73846.40      0.063444
      262.00000      77259.90      73846.40      0.046225
      265.00000      77318.80      73846.40      0.047022
      268.00000      76363.50      73846.40      0.034086
      272.00000      76363.50      73846.40      0.034086
      275.00000      77318.80      73846.40      0.047022
      278.00000      77259.90      73846.40      0.046225
      281.00000      78531.50      73846.40      0.063444
      284.00000      80607.50      73846.40      0.091557
      287.00000      85296.80      73846.40      0.155057
      290.00000      87583.80      73846.40      0.186027
      293.00000      89791.50      73846.40      0.215922
      296.00000      91623.70      73846.40      0.240734
      299.00000      92025.00      73846.40      0.246167
      302.00000      88683.80      73846.40      0.200922
      305.00000      85720.30      73846.40      0.160792
      308.00000      82244.30      73846.40      0.113721
      311.00000      78943.50      73846.40      0.069023
      314.00000      74902.90      73846.40      0.014307
      317.00000      71728.10      73846.40      -0.028686
      320.00000      69800.30      73846.40      -0.054790
      323.00000      67958.20      73846.40      -0.079736
      326.00000      64832.40      73846.40      -0.122064
      329.00000      62514.50      73846.40      -0.153452
      332.00000      61521.20      73846.40      -0.166904
      335.00000      61837.00      73846.40      -0.162627
      338.00000      63076.60      73846.40      -0.145840
      341.00000      64197.10      73846.40      -0.130667
      344.00000      63678.80      73846.40      -0.137686
      347.00000      66413.80      73846.40      -0.100649
      350.00000      60807.90      73846.40      -0.176563
      353.00000      62703.30      73846.40      -0.150896
      356.00000      61229.90      73846.40      -0.170848
      359.00000      61910.60      73846.40      -0.161630
       12     120       19.5900     45.2000      1.00000      0.00000
      1.00000      63577.40      72734.50      -0.125899
      4.00000      65407.10      72734.50      -0.100743
      7.00000      69203.20      72734.50      -0.048551
      10.00000      58421.90      72734.50      -0.196779
      13.00000      64535.10      72734.50      -0.112731
      16.00000      65034.50      72734.50      -0.105865
      19.00000      66056.50      72734.50      -0.091814
      22.00000      66050.50      72734.50      -0.091896
      25.00000      65992.00      72734.50      -0.092700
      28.00000      67376.90      72734.50      -0.073661
      31.00000      67895.20      72734.50      -0.066534
      34.00000      69745.60      72734.50      -0.041094
      37.00000      69296.30      72734.50      -0.047271
      40.00000      70372.60      72734.50      -0.032474
      43.00000      70970.90      72734.50      -0.024248
      46.00000      72300.70      72734.50      -0.005964
      49.00000      74594.90      72734.50      0.025578
      52.00000      78671.20      72734.50      0.081620
      55.00000      82158.30      72734.50      0.129563
      58.00000      83690.60      72734.50      0.150631
      61.00000      85151.80      72734.50      0.170720
      64.00000      84962.30      72734.50      0.168115
      67.00000      83640.50      72734.50      0.149941
      70.00000      78429.00      72734.50      0.078291
      73.00000      78557.20      72734.50      0.080054
      76.00000      76418.00      72734.50      0.050642
      79.00000      75963.20      72734.50      0.044389
      82.00000      76908.40      72734.50      0.057384
      85.00000      80232.00      72734.50      0.103080
      88.00000      79359.00      72734.50      0.091077
      92.00000      79359.00      72734.50      0.091077
      95.00000      80232.00      72734.50      0.103080
      98.00000      76908.40      72734.50      0.057384
      101.00000      75963.20      72734.50      0.044389
      104.00000      76418.00      72734.50      0.050642
      107.00000      78557.20      72734.50      0.080054
      110.00000      78429.00      72734.50      0.078291
      113.00000      83640.50      72734.50      0.149941
      116.00000      84962.30      72734.50      0.168115
      119.00000      85151.80      72734.50      0.170720
      122.00000      83690.60      72734.50      0.150631
      125.00000      82158.30      72734.50      0.129563
      128.00000      78671.20      72734.50      0.081620
      131.00000      74594.90      72734.50      0.025578
      134.00000      72300.70      72734.50      -0.005964
      137.00000      70970.90      72734.50      -0.024248
      140.00000      70372.60      72734.50      -0.032474
      143.00000      69296.30      72734.50      -0.047271
      146.00000      69745.60      72734.50      -0.041094
      149.00000      67895.20      72734.50      -0.066534
      152.00000      67376.90      72734.50      -0.073661
      155.00000      65992.00      72734.50      -0.092700
      158.00000      66050.50      72734.50      -0.091896
      161.00000      66056.50      72734.50      -0.091814
      164.00000      65034.50      72734.50      -0.105865
      167.00000      64535.10      72734.50      -0.112731
      170.00000      58421.90      72734.50      -0.196779
      173.00000      69203.20      72734.50      -0.048551
      176.00000      65407.10      72734.50      -0.100743
      179.00000      63577.40      72734.50      -0.125899
      181.00000      63577.40      72734.50      -0.125899
      184.00000      65407.10      72734.50      -0.100743
      187.00000      69203.20      72734.50      -0.048551
      190.00000      58421.90      72734.50      -0.196779
      193.00000      64535.10      72734.50      -0.112731
      196.00000      65034.50      72734.50      -0.105865
      199.00000      66056.50      72734.50      -0.091814
      202.00000      66050.50      72734.50      -0.091896
      205.00000      65992.00      72734.50      -0.092700
      208.00000      67376.90      72734.50      -0.073661
      211.00000      67895.20      72734.50      -0.066534
      214.00000      69745.60      72734.50      -0.041094
      217.00000      69296.30      72734.50      -0.047271
      220.00000      70372.60      72734.50      -0.032474
      223.00000      70970.90      72734.50      -0.024248
      226.00000      72300.70      72734.50      -0.005964
      229.00000      74594.90      72734.50      0.025578
      232.00000      78671.20      72734.50      0.081620
      235.00000      82158.30      72734.50      0.129563
      238.00000      83690.60      72734.50      0.150631
      241.00000      85151.80      72734.50      0.170720
      244.00000      84962.30      72734.50      0.168115
      247.00000      83640.50      72734.50      0.149941
      250.00000      78429.00      72734.50      0.078291
      253.00000      78557.20      72734.50      0.080054
      256.00000      76418.00      72734.50      0.050642
      259.00000      75963.20      72734.50      0.044389
      262.00000      76908.40      72734.50      0.057384
      265.00000      80232.00      72734.50      0.103080
      268.00000      79359.00      72734.50      0.091077
      272.00000      79359.00      72734.50      0.091077
      275.00000      80232.00      72734.50      0.103080
      278.00000      76908.40      72734.50      0.057384
      281.00000      75963.20      72734.50      0.044389
      284.00000      76418.00      72734.50      0.050642
      287.00000      78557.20      72734.50      0.080054
      290.00000      78429.00      72734.50      0.078291
      293.00000      83640.50      72734.50      0.149941
      296.00000      84962.30      72734.50      0.168115
      299.00000      85151.80      72734.50      0.170720
      302.00000      83690.60      72734.50      0.150631
      305.00000      82158.30      72734.50      0.129563
      308.00000      78671.20      72734.50      0.081620
      311.00000      74594.90      72734.50      0.025578
      314.00000      72300.70      72734.50      -0.005964
      317.00000      70970.90      72734.50      -0.024248
      320.00000      70372.60      72734.50      -0.032474
      323.00000      69296.30      72734.50      -0.047271
      326.00000      69745.60      72734.50      -0.041094
      329.00000      67895.20      72734.50      -0.066534
      332.00000      67376.90      72734.50      -0.073661
      335.00000      65992.00      72734.50      -0.092700
      338.00000      66050.50      72734.50      -0.091896
      341.00000      66056.50      72734.50      -0.091814
      344.00000      65034.50      72734.50      -0.105865
      347.00000      64535.10      72734.50      -0.112731
      350.00000      58421.90      72734.50      -0.196779
      353.00000      69203.20      72734.50      -0.048551
      356.00000      65407.10      72734.50      -0.100743
      359.00000      63577.40      72734.50      -0.125899
       13     120       19.5900     48.2000      1.00000      0.00000
      1.00000      67715.80      69678.30      -0.028166
      4.00000      69055.90      69678.30      -0.008933
      7.00000      69267.90      69678.30      -0.005890
      10.00000      62273.10      69678.30      -0.106276
      13.00000      62931.60      69678.30      -0.096826
      16.00000      66929.10      69678.30      -0.039455
      19.00000      67857.50      69678.30      -0.026131
      22.00000      68631.10      69678.30      -0.015029
      25.00000      68510.10      69678.30      -0.016766
      28.00000      67079.70      69678.30      -0.037294
      31.00000      66228.50      69678.30      -0.049510
      34.00000      67434.40      69678.30      -0.032204
      37.00000      67468.40      69678.30      -0.031715
      40.00000      66490.40      69678.30      -0.045752
      43.00000      66619.80      69678.30      -0.043894
      46.00000      67778.70      69678.30      -0.027262
      49.00000      66572.20      69678.30      -0.044577
      52.00000      67913.20      69678.30      -0.025331
      55.00000      71579.50      69678.30      0.027286
      58.00000      71416.20      69678.30      0.024943
      61.00000      70649.50      69678.30      0.013939
      64.00000      72579.40      69678.30      0.041636
      67.00000      73825.60      69678.30      0.059522
      70.00000      72089.50      69678.30      0.034606
      73.00000      73580.00      69678.30      0.055996
      76.00000      72800.30      69678.30      0.044806
      79.00000      71964.00      69678.30      0.032803
      82.00000      70501.80      69678.30      0.011818
      85.00000      71119.90      69678.30      0.020689
      88.00000      70566.90      69678.30      0.012753
      92.00000      70566.90      69678.30      0.012753
      95.00000      71119.90      69678.30      0.020689
      98.00000      70501.80      69678.30      0.011818
      101.00000      71964.00      69678.30      0.032803
      104.00000      72800.30      69678.30      0.044806
      107.00000      73580.00      69678.30      0.055996
      110.00000      72089.50      69678.30      0.034606
      113.00000      73825.60      69678.30      0.059522
      116.00000      72579.40      69678.30      0.041636
      119.00000      70649.50      69678.30      0.013939
      122.00000      71416.20      69678.30      0.024943
      125.00000      71579.50      69678.30      0.027286
      128.00000      67913.20      69678.30      -0.025331
      131.00000      66572.20      69678.30      -0.044577
      134.00000      67778.70      69678.30      -0.027262
      137.00000      66619.80      69678.30      -0.043894
      140.00000      66490.40      69678.30      -0.045752
      143.00000      67468.40      69678.30      -0.031715
      146.00000      67434.40      69678.30      -0.032204
      149.00000      66228.50      69678.30      -0.049510
      152.00000      67079.70      69678.30      -0.037294
      155.00000      68510.10      69678.30      -0.016766
      158.00000      68631.10      69678.30      -0.015029
      161.00000      67857.50      69678.30      -0.026131
      164.00000      66929.10      69678.30      -0.039455
      167.00000      62931.60      69678.30      -0.096826
      170.00000      62273.10      69678.30      -0.106276
      173.00000      69267.90      69678.30      -0.005890
      176.00000      69055.90      69678.30      -0.008933
      179.00000      67715.80      69678.30      -0.028166
      181.00000      67715.80      69678.30      -0.028166
      184.00000      69055.90      69678.30      -0.008933
      187.00000      69267.90      69678.30      -0.005890
      190.00000      62273.10      69678.30      -0.106276
      193.00000      62931.60      69678.30      -0.096826
      196.00000      66929.10      69678.30      -0.039455
      199.00000      67857.50      69678.30      -0.026131
      202.00000      68631.10      69678.30      -0.015029
      205.00000      68510.10      69678.30      -0.016766
      208.00000      67079.70      69678.30      -0.037294
      211.00000      66228.50      69678.30      -0.049510
      214.00000      67434.40      69678.30      -0.032204
      217.00000      67468.40      69678.30      -0.031715
      220.00000      66490.40      69678.30      -0.045752
      223.00000      66619.80      69678.30      -0.043894
      226.00000      67778.70      69678.30      -0.027262
      229.00000      66572.20      69678.30      -0.044577
      232.00000      67913.20      69678.30      -0.025331
      235.00000      71579.50      69678.30      0.027286
      238.00000      71416.20      69678.30      0.024943
      241.00000      70649.50      69678.30      0.013939
      244.00000      72579.40      69678.30      0.041636
      247.00000      73825.60      69678.30      0.059522
      250.00000      72089.50      69678.30      0.034606
      253.00000      73580.00      69678.30      0.055996
      256.00000      72800.30      69678.30      0.044806
      259.00000      71964.00      69678.30      0.032803
      262.00000      70501.80      69678.30      0.011818
      265.00000      71119.90      69678.30      0.020689
      268.00000      70566.90      69678.30      0.012753
      272.00000      70566.90      69678.30      0.012753
      275.00000      71119.90      69678.30      0.020689
      278.00000      70501.80      69678.30      0.011818
      281.00000      71964.00      69678.30      0.032803
      284.00000      72800.30      69678.30      0.044806
      287.00000      73580.00      69678.30      0.055996
      290.00000      72089.50      69678.30      0.034606
      293.00000      73825.60      69678.30      0.059522
      296.00000      72579.40      69678.30      0.041636
      299.00000      70649.50      69678.30      0.013939
      302.00000      71416.20      69678.30      0.024943
      305.00000      71579.50      69678.30      0.027286
      308.00000      67913.20      69678.30      -0.025331
      311.00000      66572.20      69678.30      -0.044577
      314.00000      67778.70      69678.30      -0.027262
      317.00000      66619.80      69678.30      -0.043894
      320.00000      66490.40      69678.30      -0.045752
      323.00000      67468.40      69678.30      -0.031715
      326.00000      67434.40      69678.30      -0.032204
      329.00000      66228.50      69678.30      -0.049510
      332.00000      67079.70      69678.30      -0.037294
      335.00000      68510.10      69678.30      -0.016766
      338.00000      68631.10      69678.30      -0.015029
      341.00000      67857.50      69678.30      -0.026131
      344.00000      66929.10      69678.30      -0.039455
      347.00000      62931.60      69678.30      -0.096826
      350.00000      62273.10      69678.30      -0.106276
      353.00000      69267.90      69678.30      -0.005890
      356.00000      69055.90      69678.30      -0.008933
      359.00000      67715.80      69678.30      -0.028166
       14     120       19.5900     51.2000      1.00000      0.00000
      1.00000      55811.70      60328.10      -0.074864
      4.00000      58833.40      60328.10      -0.024776
      7.00000      59860.30      60328.10      -0.007754
      10.00000      53648.80      60328.10      -0.110716
      13.00000      61955.70      60328.10      0.026980
      16.00000      61637.60      60328.10      0.021708
      19.00000      62184.40      60328.10      0.030770
      22.00000      61389.80      60328.10      0.017600
      25.00000      59105.60      60328.10      -0.020264
      28.00000      55641.40      60328.10      -0.077686
      31.00000      54282.10      60328.10      -0.100219
      34.00000      53290.40      60328.10      -0.116656
      37.00000      54363.60      60328.10      -0.098867
      40.00000      54041.20      60328.10      -0.104211
      43.00000      54337.10      60328.10      -0.099306
      46.00000      55949.00      60328.10      -0.072588
      49.00000      58841.00      60328.10      -0.024650
      52.00000      57869.50      60328.10      -0.040753
      55.00000      58454.10      60328.10      -0.031064
      58.00000      59027.50      60328.10      -0.021559
      61.00000      59071.90      60328.10      -0.020822
      64.00000      58750.40      60328.10      -0.026151
      67.00000      60600.70      60328.10      0.004519
      70.00000      61532.50      60328.10      0.019965
      73.00000      64515.10      60328.10      0.069404
      76.00000      65108.70      60328.10      0.079244
      79.00000      63957.10      60328.10      0.060155
      82.00000      64314.40      60328.10      0.066077
      85.00000      64316.10      60328.10      0.066105
      88.00000      63093.90      60328.10      0.045846
      92.00000      63093.90      60328.10      0.045846
      95.00000      64316.10      60328.10      0.066105
      98.00000      64314.40      60328.10      0.066077
      101.00000      63957.10      60328.10      0.060155
      104.00000      65108.70      60328.10      0.079244
      107.00000      64515.10      60328.10      0.069404
      110.00000      61532.50      60328.10      0.019965
      113.00000      60600.70      60328.10      0.004519
      116.00000      58750.40      60328.10      -0.026151
      119.00000      59071.90      60328.10      -0.020822
      122.00000      59027.50      60328.10      -0.021559
      125.00000      58454.10      60328.10      -0.031064
      128.00000      57869.50      60328.10      -0.040753
      131.00000      58841.00      60328.10      -0.024650
      134.00000      55949.00      60328.10      -0.072588
      137.00000      54337.10      60328.10      -0.099306
      140.00000      54041.20      60328.10      -0.104211
      143.00000      54363.60      60328.10      -0.098867
      146.00000      53290.40      60328.10      -0.116656
      149.00000      54282.10      60328.10      -0.100219
      152.00000      55641.40      60328.10      -0.077686
      155.00000      59105.60      60328.10      -0.020264
      158.00000      61389.80      60328.10      0.017600
      161.00000      62184.40      60328.10      0.030770
      164.00000      61637.60      60328.10      0.021708
      167.00000      61955.70      60328.10      0.026980
      170.00000      53648.80      60328.10      -0.110716
      173.00000      59860.30      60328.10      -0.007754
      176.00000      58833.40      60328.10      -0.024776
      179.00000      55811.70      60328.10      -0.074864
      181.00000      55811.70      60328.10      -0.074864
      184.00000      58833.40      60328.10      -0.024776
      187.00000      59860.30      60328.10      -0.007754
      190.00000      53648.80      60328.10      -0.110716
      193.00000      61955.70      60328.10      0.026980
      196.00000      61637.60      60328.10      0.021708
      199.00000      62184.40      60328.10      0.030770
      202.00000      61389.80      60328.10      0.017600
      205.00000      59105.60      60328.10      -0.020264
      208.00000      55641.40      60328.10      -0.077686
      211.00000      54282.10      60328.10      -0.100219
      214.00000      53290.40      60328.10      -0.116656
      217.00000      54363.60      60328.10      -0.098867
      220.00000      54041.20      60328.10      -0.104211
      223.00000      54337.10      60328.10      -0.099306
      226.00000      55949.00      60328.10      -0.072588
      229.00000      58841.00      60328.10      -0.024650
      232.00000      57869.50      60328.10      -0.040753
      235.00000      58454.10      60328.10      -0.031064
      238.00000      59027.50      60328.10      -0.021559
      241.00000      59071.90      60328.10      -0.020822
      244.00000      58750.40      60328.10      -0.026151
      247.00000      60600.70      60328.10      0.004519
      250.00000      61532.50      60328.10      0.019965
      253.00000      64515.10      60328.10      0.069404
      256.00000      65108.70      60328.10      0.079244
      259.00000      63957.10      60328.10      0.060155
      262.00000      64314.40      60328.10      0.066077
      265.00000      64316.10      60328.10      0.066105
      268.00000      63093.90      60328.10      0.045846
      272.00000      63093.90      60328.10      0.045846
      275.00000      64316.10      60328.10      0.066105
      278.00000      64314.40      60328.10      0.066077
      281.00000      63957.10      60328.10      0.060155
      284.00000      65108.70      60328.10      0.079244
      287.00000      64515.10      60328.10      0.069404
      290.00000      61532.50      60328.10      0.019965
      293.00000      60600.70      60328.10      0.004519
      296.00000      58750.40      60328.10      -0.026151
      299.00000      59071.90      60328.10      -0.020822
      302.00000      59027.50      60328.10      -0.021559
      305.00000      58454.10      60328.10      -0.031064
      308.00000      57869.50      60328.10      -0.040753
      311.00000      58841.00      60328.10      -0.024650
      314.00000      55949.00      60328.10      -0.072588
      317.00000      54337.10      60328.10      -0.099306
      320.00000      54041.20      60328.10      -0.104211
      323.00000      54363.60      60328.10      -0.098867
      326.00000      53290.40      60328.10      -0.116656
      329.00000      54282.10      60328.10      -0.100219
      332.00000      55641.40      60328.10      -0.077686
      335.00000      59105.60      60328.10      -0.020264
      338.00000      61389.80      60328.10      0.017600
      341.00000      62184.40      60328.10      0.030770
      344.00000      61637.60      60328.10      0.021708
      347.00000      61955.70      60328.10      0.026980
      350.00000      53648.80      60328.10      -0.110716
      353.00000      59860.30      60328.10      -0.007754
      356.00000      58833.40      60328.10      -0.024776
      359.00000      55811.70      60328.10      -0.074864
       15     120       19.5900     54.2000      1.00000      0.00000
      1.00000      48418.50      53642.50      -0.097385
      4.00000      55112.70      53642.50      0.027407
      7.00000      48735.10      53642.50      -0.091483
      10.00000      50526.30      53642.50      -0.058093
      13.00000      55343.60      53642.50      0.031713
      16.00000      55258.90      53642.50      0.030133
      19.00000      55717.20      53642.50      0.038677
      22.00000      53547.20      53642.50      -0.001776
      25.00000      52152.10      53642.50      -0.027783
      28.00000      50716.00      53642.50      -0.054555
      31.00000      47703.00      53642.50      -0.110723
      34.00000      46078.50      53642.50      -0.141007
      37.00000      46355.80      53642.50      -0.135838
      40.00000      45385.50      53642.50      -0.153927
      43.00000      44790.00      53642.50      -0.165027
      46.00000      47510.60      53642.50      -0.114310
      49.00000      50277.80      53642.50      -0.062725
      52.00000      50539.30      53642.50      -0.057849
      55.00000      52687.40      53642.50      -0.017805
      58.00000      54446.40      53642.50      0.014987
      61.00000      55682.20      53642.50      0.038025
      64.00000      55216.60      53642.50      0.029345
      67.00000      55722.10      53642.50      0.038768
      70.00000      56376.80      53642.50      0.050972
      73.00000      57065.20      53642.50      0.063806
      76.00000      55409.90      53642.50      0.032949
      79.00000      56945.30      53642.50      0.061571
      82.00000      56738.90      53642.50      0.057723
      85.00000      55503.80      53642.50      0.034699
      88.00000      54047.90      53642.50      0.007557
      92.00000      54047.90      53642.50      0.007557
      95.00000      55503.80      53642.50      0.034699
      98.00000      56738.90      53642.50      0.057723
      101.00000      56945.30      53642.50      0.061571
      104.00000      55409.90      53642.50      0.032949
      107.00000      57065.20      53642.50      0.063806
      110.00000      56376.80      53642.50      0.050972
      113.00000      55722.10      53642.50      0.038768
      116.00000      55216.60      53642.50      0.029345
      119.00000      55682.20      53642.50      0.038025
      122.00000      54446.40      53642.50      0.014987
      125.00000      52687.40      53642.50      -0.017805
      128.00000      50539.30      53642.50      -0.057849
      131.00000      50277.80      53642.50      -0.062725
      134.00000      47510.60      53642.50      -0.114310
      137.00000      44790.00      53642.50      -0.165027
      140.00000      45385.50      53642.50      -0.153927
      143.00000      46355.80      53642.50      -0.135838
      146.00000      46078.50      53642.50      -0.141007
      149.00000      47703.00      53642.50      -0.110723
      152.00000      50716.00      53642.50      -0.054555
      155.00000      52152.10      53642.50      -0.027783
      158.00000      53547.20      53642.50      -0.001776
      161.00000      55717.20      53642.50      0.038677
      164.00000      55258.90      53642.50      0.030133
      167.00000      55343.60      53642.50      0.031713
      170.00000      50526.30      53642.50      -0.058093
      173.00000      48735.10      53642.50      -0.091483
      176.00000      55112.70      53642.50      0.027407
      179.00000      48418.50      53642.50      -0.097385
      181.00000      48418.50      53642.50      -0.097385
      184.00000      55112.70      53642.50      0.027407
      187.00000      48735.10      53642.50      -0.091483
      190.00000      50526.30      53642.50      -0.058093
      193.00000      55343.60      53642.50      0.031713
      196.00000      55258.90      53642.50      0.030133
      199.00000      55717.20      53642.50      0.038677
      202.00000      53547.20      53642.50      -0.001776
      205.00000      52152.10      53642.50      -0.027783
      208.00000      50716.00      53642.50      -0.054555
      211.00000      47703.00      53642.50      -0.110723
      214.00000      46078.50      53642.50      -0.141007
      217.00000      46355.80      53642.50      -0.135838
      220.00000      45385.50      53642.50      -0.153927
      223.00000      44790.00      53642.50      -0.165027
      226.00000      47510.60      53642.50      -0.114310
      229.00000      50277.80      53642.50      -0.062725
      232.00000      50539.30      53642.50      -0.057849
      235.00000      52687.40      53642.50      -0.017805
      238.00000      54446.40      53642.50      0.014987
      241.00000      55682.20      53642.50      0.038025
      244.00000      55216.60      53642.50      0.029345
      247.00000      55722.10      53642.50      0.038768
      250.00000      56376.80      53642.50      0.050972
      253.00000      57065.20      53642.50      0.063806
      256.00000      55409.90      53642.50      0.032949
      259.00000      56945.30      53642.50      0.061571
      262.00000      56738.90      53642.50      0.057723
      265.00000      55503.80      53642.50      0.034699
      268.00000      54047.90      53642.50      0.007557
      272.00000      54047.90      53642.50      0.007557
      275.00000      55503.80      53642.50      0.034699
      278.00000      56738.90      53642.50      0.057723
      281.00000      56945.30      53642.50      0.061571
      284.00000      55409.90      53642.50      0.032949
      287.00000      57065.20      53642.50      0.063806
      290.00000      56376.80      53642.50      0.050972
      293.00000      55722.10      53642.50      0.038768
      296.00000      55216.60      53642.50      0.029345
      299.00000      55682.20      53642.50      0.038025
      302.00000      54446.40      53642.50      0.014987
      305.00000      52687.40      53642.50      -0.017805
      308.00000      50539.30      53642.50      -0.057849
      311.00000      50277.80      53642.50      -0.062725
      314.00000      47510.60      53642.50      -0.114310
      317.00000      44790.00      53642.50      -0.165027
      320.00000      45385.50      53642.50      -0.153927
      323.00000      46355.80      53642.50      -0.135838
      326.00000      46078.50      53642.50      -0.141007
      329.00000      47703.00      53642.50      -0.110723
      332.00000      50716.00      53642.50      -0.054555
      335.00000      52152.10      53642.50      -0.027783
      338.00000      53547.20      53642.50      -0.001776
      341.00000      55717.20      53642.50      0.038677
      344.00000      55258.90      53642.50      0.030133
      347.00000      55343.60      53642.50      0.031713
      350.00000      50526.30      53642.50      -0.058093
      353.00000      48735.10      53642.50      -0.091483
      356.00000      55112.70      53642.50      0.027407
      359.00000      48418.50      53642.50      -0.097385
       16     120       19.5900     57.2000      1.00000      0.00000
      1.00000      44650.90      45588.40      -0.020565
      4.00000      44478.50      45588.40      -0.024347
      7.00000      48901.90      45588.40      0.072683
      10.00000      41171.10      45588.40      -0.096896
      13.00000      42251.90      45588.40      -0.073188
      16.00000      43605.00      45588.40      -0.043507
      19.00000      44092.50      45588.40      -0.032813
      22.00000      43993.50      45588.40      -0.034985
      25.00000      43684.90      45588.40      -0.041756
      28.00000      42451.70      45588.40      -0.068805
      31.00000      41350.00      45588.40      -0.092972
      34.00000      40931.70      45588.40      -0.102147
      37.00000      40760.40      45588.40      -0.105904
      40.00000      40375.30      45588.40      -0.114351
      43.00000      40393.10      45588.40      -0.113961
      46.00000      41565.80      45588.40      -0.088237
      49.00000      42633.00      45588.40      -0.064827
      52.00000      44222.30      45588.40      -0.029967
      55.00000      46803.50      45588.40      0.026653
      58.00000      49157.60      45588.40      0.078291
      61.00000      50560.00      45588.40      0.109054
      64.00000      51058.30      45588.40      0.119983
      67.00000      51537.30      45588.40      0.130490
      70.00000      49987.30      45588.40      0.096491
      73.00000      47738.20      45588.40      0.047156
      76.00000      47242.00      45588.40      0.036272
      79.00000      48205.90      45588.40      0.057416
      82.00000      47975.80      45588.40      0.052368
      85.00000      48926.50      45588.40      0.073222
      88.00000      50467.40      45588.40      0.107023
      92.00000      50467.40      45588.40      0.107023
      95.00000      48926.50      45588.40      0.073222
      98.00000      47975.80      45588.40      0.052368
      101.00000      48205.90      45588.40      0.057416
      104.00000      47242.00      45588.40      0.036272
      107.00000      47738.20      45588.40      0.047156
      110.00000      49987.30      45588.40      0.096491
      113.00000      51537.30      45588.40      0.130490
      116.00000      51058.30      45588.40      0.119983
      119.00000      50560.00      45588.40      0.109054
      122.00000      49157.60      45588.40      0.078291
      125.00000      46803.50      45588.40      0.026653
      128.00000      44222.30      45588.40      -0.029967
      131.00000      42633.00      45588.40      -0.064827
      134.00000      41565.80      45588.40      -0.088237
      137.00000      40393.10      45588.40      -0.113961
      140.00000      40375.30      45588.40      -0.114351
      143.00000      40760.40      45588.40      -0.105904
      146.00000      40931.70      45588.40      -0.102147
      149.00000      41350.00      45588.40      -0.092972
      152.00000      42451.70      45588.40      -0.068805
      155.00000      43684.90      45588.40      -0.041756
      158.00000      43993.50      45588.40      -0.034985
      161.00000      44092.50      45588.40      -0.032813
      164.00000      43605.00      45588.40      -0.043507
      167.00000      42251.90      45588.40      -0.073188
      170.00000      41171.10      45588.40      -0.096896
      173.00000      48901.90      45588.40      0.072683
      176.00000      44478.50      45588.40      -0.024347
      179.00000      44650.90      45588.40      -0.020565
      181.00000      44650.90      45588.40      -0.020565
      184.00000      44478.50      45588.40      -0.024347
      187.00000      48901.90      45588.40      0.072683
      190.00000      41171.10      45588.40      -0.096896
      193.00000      42251.90      45588.40      -0.073188
      196.00000      43605.00      45588.40      -0.043507
      199.00000      44092.50      45588.40      -0.032813
      202.00000      43993.50      45588.40      -0.034985
      205.00000      43684.90      45588.40      -0.041756
      208.00000      42451.70      45588.40      -0.068805
      211.00000      41350.00      45588.40      -0.092972
      214.00000      40931.70      45588.40      -0.102147
      217.00000      40760.40      45588.40      -0.105904
      220.00000      40375.30      45588.40      -0.114351
      223.00000      40393.10      45588.40      -0.113961
      226.00000      41565.80      45588.40      -0.088237
      229.00000      42633.00      45588.40      -0.064827
      232.00000      44222.30      45588.40      -0.029967
      235.00000      46803.50      45588.40      0.026653
      238.00000      49157.60      45588.40      0.078291
      241.00000      50560.00      45588.40      0.109054
      244.00000      51058.30      45588.40      0.119983
      247.00000      51537.30      45588.40      0.130490
      250.00000      49987.30      45588.40      0.096491
      253.00000      47738.20      45588.40      0.047156
      256.00000      47242.00      45588.40      0.036272
      259.00000      48205.90      45588.40      0.057416
      262.00000      47975.80      45588.40      0.052368
      265.00000      48926.50      45588.40      0.073222
      268.00000      50467.40      45588.40      0.107023
      272.00000      50467.40      45588.40      0.107023
      275.00000      48926.50      45588.40      0.073222
      278.00000      47975.80      45588.40      0.052368
      281.00000      48205.90      45588.40      0.057416
      284.00000      47242.00      45588.40      0.036272
      287.00000      47738.20      45588.40      0.047156
      290.00000      49987.30      45588.40      0.096491
      293.00000      51537.30      45588.40      0.130490
      296.00000      51058.30      45588.40      0.119983
      299.00000      50560.00      45588.40      0.109054
      302.00000      49157.60      45588.40      0.078291
      305.00000      46803.50      45588.40      0.026653
      308.00000      44222.30      45588.40      -0.029967
      311.00000      42633.00      45588.40      -0.064827
      314.00000      41565.80      45588.40      -0.088237
      317.00000      40393.10      45588.40      -0.113961
      320.00000      40375.30      45588.40      -0.114351
      323.00000      40760.40      45588.40      -0.105904
      326.00000      40931.70      45588.40      -0.102147
      329.00000      41350.00      45588.40      -0.092972
      332.00000      42451.70      45588.40      -0.068805
      335.00000      43684.90      45588.40      -0.041756
      338.00000      43993.50      45588.40      -0.034985
      341.00000      44092.50      45588.40      -0.032813
      344.00000      43605.00      45588.40      -0.043507
      347.00000      42251.90      45588.40      -0.073188
      350.00000      41171.10      45588.40      -0.096896
      353.00000      48901.90      45588.40      0.072683
      356.00000      44478.50      45588.40      -0.024347
      359.00000      44650.90      45588.40      -0.020565
       17     120       19.5900     60.2000      1.00000      0.00000
      1.00000      40148.00      42388.40      -0.052852
      4.00000      41680.70      42388.40      -0.016695
      7.00000      40565.60      42388.40      -0.043002
      10.00000      35834.20      42388.40      -0.154622
      13.00000      35627.80      42388.40      -0.159490
      16.00000      35198.30      42388.40      -0.169623
      19.00000      35191.50      42388.40      -0.169785
      22.00000      35866.10      42388.40      -0.153870
      25.00000      37732.10      42388.40      -0.109847
      28.00000      37797.10      42388.40      -0.108314
      31.00000      38870.60      42388.40      -0.082988
      34.00000      39192.40      42388.40      -0.075398
      37.00000      40140.10      42388.40      -0.053039
      40.00000      39043.90      42388.40      -0.078900
      43.00000      39347.10      42388.40      -0.071748
      46.00000      39986.20      42388.40      -0.056670
      49.00000      41566.80      42388.40      -0.019383
      52.00000      42857.90      42388.40      0.011076
      55.00000      44680.70      42388.40      0.054078
      58.00000      47515.50      42388.40      0.120956
      61.00000      48714.70      42388.40      0.149247
      64.00000      50270.40      42388.40      0.185948
      67.00000      49487.10      42388.40      0.167470
      70.00000      48816.00      42388.40      0.151637
      73.00000      47851.90      42388.40      0.128892
      76.00000      47341.90      42388.40      0.116861
      79.00000      45552.70      42388.40      0.074651
      82.00000      45182.60      42388.40      0.065919
      85.00000      46068.90      42388.40      0.086828
      88.00000      47446.00      42388.40      0.119316
      92.00000      47446.00      42388.40      0.119316
      95.00000      46068.90      42388.40      0.086828
      98.00000      45182.60      42388.40      0.065919
      101.00000      45552.70      42388.40      0.074651
      104.00000      47341.90      42388.40      0.116861
      107.00000      47851.90      42388.40      0.128892
      110.00000      48816.00      42388.40      0.151637
      113.00000      49487.10      42388.40      0.167470
      116.00000      50270.40      42388.40      0.185948
      119.00000      48714.70      42388.40      0.149247
      122.00000      47515.50      42388.40      0.120956
      125.00000      44680.70      42388.40      0.054078
      128.00000      42857.90      42388.40      0.011076
      131.00000      41566.80      42388.40      -0.019383
      134.00000      39986.20      42388.40      -0.056670
      137.00000      39347.10      42388.40      -0.071748
      140.00000      39043.90      42388.40      -0.078900
      143.00000      40140.10      42388.40      -0.053039
      146.00000      39192.40      42388.40      -0.075398
      149.00000      38870.60      42388.40      -0.082988
      152.00000      37797.10      42388.40      -0.108314
      155.00000      37732.10      42388.40      -0.109847
      158.00000      35866.10      42388.40      -0.153870
      161.00000      35191.50      42388.40      -0.169785
      164.00000      35198.30      42388.40      -0.169623
      167.00000      35627.80      42388.40      -0.159490
      170.00000      35834.20      42388.40      -0.154622
      173.00000      40565.60      42388.40      -0.043002
      176.00000      41680.70      42388.40      -0.016695
      179.00000      40148.00      42388.40      -0.052852
      181.00000      40148.00      42388.40      -0.052852
      184.00000      41680.70      42388.40      -0.016695
      187.00000      40565.60      42388.40      -0.043002
      190.00000      35834.20      42388.40      -0.154622
      193.00000      35627.80      42388.40      -0.159490
      196.00000      35198.30      42388.40      -0.169623
      199.00000      35191.50      42388.40      -0.169785
      202.00000      35866.10      42388.40      -0.153870
      205.00000      37732.10      42388.40      -0.109847
      208.00000      37797.10      42388.40      -0.108314
      211.00000      38870.60      42388.40      -0.082988
      214.00000      39192.40      42388.40      -0.075398
      217.00000      40140.10      42388.40      -0.053039
      220.00000      39043.90      42388.40      -0.078900
      223.00000      39347.10      42388.40      -0.071748
      226.00000      39986.20      42388.40      -0.056670
      229.00000      41566.80      42388.40      -0.019383
      232.00000      42857.90      42388.40      0.011076
      235.00000      44680.70      42388.40      0.054078
      238.00000      47515.50      42388.40      0.120956
      241.00000      48714.70      42388.40      0.149247
      244.00000      50270.40      42388.40      0.185948
      247.00000      49487.10      42388.40      0.167470
      250.00000      48816.00      42388.40      0.151637
      253.00000      47851.90      42388.40      0.128892
      256.00000      47341.90      42388.40      0.116861
      259.00000      45552.70      42388.40      0.074651
      262.00000      45182.60      42388.40      0.065919
      265.00000      46068.90      42388.40      0.086828
      268.00000      47446.00      42388.40      0.119316
      272.00000      47446.00      42388.40      0.119316
      275.00000      46068.90      42388.40      0.086828
      278.00000      45182.60      42388.40      0.065919
      281.00000      45552.70      42388.40      0.074651
      284.00000      47341.90      42388.40      0.116861
      287.00000      47851.90      42388.40      0.128892
      290.00000      48816.00      42388.40      0.151637
      293.00000      49487.10      42388.40      0.167470
      296.00000      50270.40      42388.40      0.185948
      299.00000      48714.70      42388.40      0.149247
      302.00000      47515.50      42388.40      0.120956
      305.00000      44680.70      42388.40      0.054078
      308.00000      42857.90      42388.40      0.011076
      311.00000      41566.80      42388.40      -0.019383
      314.00000      39986.20      42388.40      -0.056670
      317.00000      39347.10      42388.40      -0.071748
      320.00000      39043.90      42388.40      -0.078900
      323.00000      40140.10      42388.40      -0.053039
      326.00000      39192.40      42388.40      -0.075398
      329.00000      38870.60      42388.40      -0.082988
      332.00000      37797.10      42388.40      -0.108314
      335.00000      37732.10      42388.40      -0.109847
      338.00000      35866.10      42388.40      -0.153870
      341.00000      35191.50      42388.40      -0.169785
      344.00000      35198.30      42388.40      -0.169623
      347.00000      35627.80      42388.40      -0.159490
      350.00000      35834.20      42388.40      -0.154622
      353.00000      40565.60      42388.40      -0.043002
      356.00000      41680.70      42388.40      -0.016695
      359.00000      40148.00      42388.40      -0.052852
       18     120       19.5900     63.2000      1.00000      0.00000
      1.00000      34045.40      38169.70      -0.108051
      4.00000      32551.30      38169.70      -0.147196
      7.00000      32698.30      38169.70      -0.143345
      10.00000      29464.40      38169.70      -0.228070
      13.00000      29340.30      38169.70      -0.231320
      16.00000      30078.80      38169.70      -0.211971
      19.00000      30164.90      38169.70      -0.209717
      22.00000      31073.60      38169.70      -0.185910
      25.00000      31213.40      38169.70      -0.182247
      28.00000      32794.00      38169.70      -0.140837
      31.00000      33965.40      38169.70      -0.110147
      34.00000      35963.10      38169.70      -0.057809
      37.00000      36612.00      38169.70      -0.040809
      40.00000      37011.40      38169.70      -0.030347
      43.00000      37288.50      38169.70      -0.023085
      46.00000      37152.20      38169.70      -0.026658
      49.00000      37472.20      38169.70      -0.018275
      52.00000      38010.30      38169.70      -0.004176
      55.00000      42835.40      38169.70      0.122236
      58.00000      44566.60      38169.70      0.167590
      61.00000      47391.10      38169.70      0.241590
      64.00000      47148.60      38169.70      0.235235
      67.00000      47520.90      38169.70      0.244991
      70.00000      44155.90      38169.70      0.156831
      73.00000      43469.30      38169.70      0.138844
      76.00000      42480.70      38169.70      0.112942
      79.00000      43016.40      38169.70      0.126977
      82.00000      42794.80      38169.70      0.121172
      85.00000      42100.90      38169.70      0.102992
      88.00000      42641.10      38169.70      0.117144
      92.00000      42641.10      38169.70      0.117144
      95.00000      42100.90      38169.70      0.102992
      98.00000      42794.80      38169.70      0.121172
      101.00000      43016.40      38169.70      0.126977
      104.00000      42480.70      38169.70      0.112942
      107.00000      43469.30      38169.70      0.138844
      110.00000      44155.90      38169.70      0.156831
      113.00000      47520.90      38169.70      0.244991
      116.00000      47148.60      38169.70      0.235235
      119.00000      47391.10      38169.70      0.241590
      122.00000      44566.60      38169.70      0.167590
      125.00000      42835.40      38169.70      0.122236
      128.00000      38010.30      38169.70      -0.004176
      131.00000      37472.20      38169.70      -0.018275
      134.00000      37152.20      38169.70      -0.026658
      137.00000      37288.50      38169.70      -0.023085
      140.00000      37011.40      38169.70      -0.030347
      143.00000      36612.00      38169.70      -0.040809
      146.00000      35963.10      38169.70      -0.057809
      149.00000      33965.40      38169.70      -0.110147
      152.00000      32794.00      38169.70      -0.140837
      155.00000      31213.40      38169.70      -0.182247
      158.00000      31073.60      38169.70      -0.185910
      161.00000      30164.90      38169.70      -0.209717
      164.00000      30078.80      38169.70      -0.211971
      167.00000      29340.30      38169.70      -0.231320
      170.00000      29464.40      38169.70      -0.228070
      173.00000      32698.30      38169.70      -0.143345
      176.00000      32551.30      38169.70      -0.147196
      179.00000      34045.40      38169.70      -0.108051
      181.00000      34045.40      38169.70      -0.108051
      184.00000      32551.30      38169.70      -0.147196
      187.00000      32698.30      38169.70      -0.143345
      190.00000      29464.40      38169.70      -0.228070
      193.00000      29340.30      38169.70      -0.231320
      196.00000      30078.80      38169.70      -0.211971
      199.00000      30164.90      38169.70      -0.209717
      202.00000      31073.60      38169.70      -0.185910
      205.00000      31213.40      38169.70      -0.182247
      208.00000      32794.00      38169.70      -0.140837
      211.00000      33965.40      38169.70      -0.110147
      214.00000      35963.10      38169.70      -0.057809
      217.00000      36612.00      38169.70      -0.040809
      220.00000      37011.40      38169.70      -0.030347
      223.00000      37288.50      38169.70      -0.023085
      226.00000      37152.20      38169.70      -0.026658
      229.00000      37472.20      38169.70      -0.018275
      232.00000      38010.30      38169.70      -0.004176
      235.00000      42835.40      38169.70      0.122236
      238.00000      44566.60      38169.70      0.167590
      241.00000      47391.10      38169.70      0.241590
      244.00000      47148.60      38169.70      0.235235
      247.00000      47520.90      38169.70      0.244991
      250.00000      44155.90      38169.70      0.156831
      253.00000      43469.30      38169.70      0.138844
      256.00000      42480.70      38169.70      0.112942
      259.00000      43016.40      38169.70      0.126977
      262.00000      42794.80      38169.70      0.121172
      265.00000      42100.90      38169.70      0.102992
      268.00000      42641.10      38169.70      0.117144
      272.00000      42641.10      38169.70      0.117144
      275.00000      42100.90      38169.70      0.102992
      278.00000      42794.80      38169.70      0.121172
      281.00000      43016.40      38169.70      0.126977
      284.00000      42480.70      38169.70      0.112942
      287.00000      43469.30      38169.70      0.138844
      290.00000      44155.90      38169.70      0.156831
      293.00000      47520.90      38169.70      0.244991
      296.00000      47148.60      38169.70      0.235235
      299.00000      47391.10      38169.70      0.241590
      302.00000      44566.60      38169.70      0.167590
      305.00000      42835.40      38169.70      0.122236
      308.00000      38010.30      38169.70      -0.004176
      311.00000      37472.20      38169.70      -0.018275
      314.00000      37152.20      38169.70      -0.026658
      317.00000      37288.50      38169.70      -0.023085
      320.00000      37011.40      38169.70      -0.030347
      323.00000      36612.00      38169.70      -0.040809
      326.00000      35963.10      38169.70      -0.057809
      329.00000      33965.40      38169.70      -0.110147
      332.00000      32794.00      38169.70      -0.140837
      335.00000      31213.40      38169.70      -0.182247
      338.00000      31073.60      38169.70      -0.185910
      341.00000      30164.90      38169.70      -0.209717
      344.00000      30078.80      38169.70      -0.211971
      347.00000      29340.30      38169.70      -0.231320
      350.00000      29464.40      38169.70      -0.228070
      353.00000      32698.30      38169.70      -0.143345
      356.00000      32551.30      38169.70      -0.147196
      359.00000      34045.40      38169.70      -0.108051
       19     120       19.5900     66.2000      1.00000      0.00000
      1.00000      28975.90      31997.20      -0.094425
      4.00000      26152.00      31997.20      -0.182680
      7.00000      26259.50      31997.20      -0.179318
      10.00000      22727.80      31997.20      -0.289695
      13.00000      24607.10      31997.20      -0.230962
      16.00000      26250.40      31997.20      -0.179603
      19.00000      26536.60      31997.20      -0.170660
      22.00000      26705.70      31997.20      -0.165375
      25.00000      26911.80      31997.20      -0.158932
      28.00000      27130.80      31997.20      -0.152089
      31.00000      27994.40      31997.20      -0.125099
      34.00000      29833.80      31997.20      -0.067614
      37.00000      31792.70      31997.20      -0.006392
      40.00000      32897.40      31997.20      0.028134
      43.00000      33111.20      31997.20      0.034814
      46.00000      32680.70      31997.20      0.021359
      49.00000      32818.00      31997.20      0.025651
      52.00000      32438.20      31997.20      0.013782
      55.00000      33973.30      31997.20      0.061758
      58.00000      35122.20      31997.20      0.097664
      61.00000      36723.30      31997.20      0.147701
      64.00000      35919.70      31997.20      0.122587
      67.00000      35945.50      31997.20      0.123395
      70.00000      35366.50      31997.20      0.105299
      73.00000      35937.90      31997.20      0.123157
      76.00000      36786.60      31997.20      0.149682
      79.00000      37896.60      31997.20      0.184373
      82.00000      37778.40      31997.20      0.180676
      85.00000      37452.90      31997.20      0.170504
      88.00000      35586.80      31997.20      0.112185
      92.00000      35586.80      31997.20      0.112185
      95.00000      37452.90      31997.20      0.170504
      98.00000      37778.40      31997.20      0.180676
      101.00000      37896.60      31997.20      0.184373
      104.00000      36786.60      31997.20      0.149682
      107.00000      35937.90      31997.20      0.123157
      110.00000      35366.50      31997.20      0.105299
      113.00000      35945.50      31997.20      0.123395
      116.00000      35919.70      31997.20      0.122587
      119.00000      36723.30      31997.20      0.147701
      122.00000      35122.20      31997.20      0.097664
      125.00000      33973.30      31997.20      0.061758
      128.00000      32438.20      31997.20      0.013782
      131.00000      32818.00      31997.20      0.025651
      134.00000      32680.70      31997.20      0.021359
      137.00000      33111.20      31997.20      0.034814
      140.00000      32897.40      31997.20      0.028134
      143.00000      31792.70      31997.20      -0.006392
      146.00000      29833.80      31997.20      -0.067614
      149.00000      27994.40      31997.20      -0.125099
      152.00000      27130.80      31997.20      -0.152089
      155.00000      26911.80      31997.20      -0.158932
      158.00000      26705.70      31997.20      -0.165375
      161.00000      26536.60      31997.20      -0.170660
      164.00000      26250.40      31997.20      -0.179603
      167.00000      24607.10      31997.20      -0.230962
      170.00000      22727.80      31997.20      -0.289695
      173.00000      26259.50      31997.20      -0.179318
      176.00000      26152.00      31997.20      -0.182680
      179.00000      28975.90      31997.20      -0.094425
      181.00000      28975.90      31997.20      -0.094425
      184.00000      26152.00      31997.20      -0.182680
      187.00000      26259.50      31997.20      -0.179318
      190.00000      22727.80      31997.20      -0.289695
      193.00000      24607.10      31997.20      -0.230962
      196.00000      26250.40      31997.20      -0.179603
      199.00000      26536.60      31997.20      -0.170660
      202.00000      26705.70      31997.20      -0.165375
      205.00000      26911.80      31997.20      -0.158932
      208.00000      27130.80      31997.20      -0.152089
      211.00000      27994.40      31997.20      -0.125099
      214.00000      29833.80      31997.20      -0.067614
      217.00000      31792.70      31997.20      -0.006392
      220.00000      32897.40      31997.20      0.028134
      223.00000      33111.20      31997.20      0.034814
      226.00000      32680.70      31997.20      0.021359
      229.00000      32818.00      31997.20      0.025651
      232.00000      32438.20      31997.20      0.013782
      235.00000      33973.30      31997.20      0.061758
      238.00000      35122.20      31997.20      0.097664
      241.00000      36723.30      31997.20      0.147701
      244.00000      35919.70      31997.20      0.122587
      247.00000      35945.50      31997.20      0.123395
      250.00000      35366.50      31997.20      0.105299
      253.00000      35937.90      31997.20      0.123157
      256.00000      36786.60      31997.20      0.149682
      259.00000      37896.60      31997.20      0.184373
      262.00000      37778.40      31997.20      0.180676
      265.00000      37452.90      31997.20      0.170504
      268.00000      35586.80      31997.20      0.112185
      272.00000      35586.80      31997.20      0.112185
      275.00000      37452.90      31997.20      0.170504
      278.00000      37778.40      31997.20      0.180676
      281.00000      37896.60      31997.20      0.184373
      284.00000      36786.60      31997.20      0.149682
      287.00000      35937.90      31997.20      0.123157
      290.00000      35366.50      31997.20      0.105299
      293.00000      35945.50      31997.20      0.123395
      296.00000      35919.70      31997.20      0.122587
      299.00000      36723.30      31997.20      0.147701
      302.00000      35122.20      31997.20      0.097664
      305.00000      33973.30      31997.20      0.061758
      308.00000      32438.20      31997.20      0.013782
      311.00000      32818.00      31997.20      0.025651
      314.00000      32680.70      31997.20      0.021359
      317.00000      33111.20      31997.20      0.034814
      320.00000      32897.40      31997.20      0.028134
      323.00000      31792.70      31997.20      -0.006392
      326.00000      29833.80      31997.20      -0.067614
      329.00000      27994.40      31997.20      -0.125099
      332.00000      27130.80      31997.20      -0.152089
      335.00000      26911.80      31997.20      -0.158932
      338.00000      26705.70      31997.20      -0.165375
      341.00000      26536.60      31997.20      -0.170660
      344.00000      26250.40      31997.20      -0.179603
      347.00000      24607.10      31997.20      -0.230962
      350.00000      22727.80      31997.20      -0.289695
      353.00000      26259.50      31997.20      -0.179318
      356.00000      26152.00      31997.20      -0.182680
      359.00000      28975.90      31997.20      -0.094425
       20     120       19.5900     69.2000      1.00000      0.00000
      1.00000      22219.70      26414.40      -0.158806
      4.00000      20749.30      26414.40      -0.214472
      7.00000      20149.70      26414.40      -0.237169
      10.00000      22080.00      26414.40      -0.164095
      13.00000      19876.40      26414.40      -0.247517
      16.00000      22502.80      26414.40      -0.148086
      19.00000      22174.80      26414.40      -0.160503
      22.00000      22175.40      26414.40      -0.160480
      25.00000      21878.70      26414.40      -0.171713
      28.00000      21493.10      26414.40      -0.186310
      31.00000      22345.40      26414.40      -0.154047
      34.00000      24007.40      26414.40      -0.091126
      37.00000      25950.80      26414.40      -0.017552
      40.00000      27277.90      26414.40      0.032688
      43.00000      28448.70      26414.40      0.077014
      46.00000      28015.90      26414.40      0.060630
      49.00000      27173.30      26414.40      0.028729
      52.00000      26347.30      26414.40      -0.002541
      55.00000      26072.60      26414.40      -0.012940
      58.00000      25463.50      26414.40      -0.036002
      61.00000      26112.10      26414.40      -0.011447
      64.00000      26161.10      26414.40      -0.009590
      67.00000      25714.20      26414.40      -0.026510
      70.00000      26752.50      26414.40      0.012800
      73.00000      28992.20      26414.40      0.097589
      76.00000      30802.10      26414.40      0.166108
      79.00000      33127.70      26414.40      0.254152
      82.00000      33880.50      26414.40      0.282651
      85.00000      32250.70      26414.40      0.220951
      88.00000      30099.20      26414.40      0.139498
      92.00000      30099.20      26414.40      0.139498
      95.00000      32250.70      26414.40      0.220951
      98.00000      33880.50      26414.40      0.282651
      101.00000      33127.70      26414.40      0.254152
      104.00000      30802.10      26414.40      0.166108
      107.00000      28992.20      26414.40      0.097589
      110.00000      26752.50      26414.40      0.012800
      113.00000      25714.20      26414.40      -0.026510
      116.00000      26161.10      26414.40      -0.009590
      119.00000      26112.10      26414.40      -0.011447
      122.00000      25463.50      26414.40      -0.036002
      125.00000      26072.60      26414.40      -0.012940
      128.00000      26347.30      26414.40      -0.002541
      131.00000      27173.30      26414.40      0.028729
      134.00000      28015.90      26414.40      0.060630
      137.00000      28448.70      26414.40      0.077014
      140.00000      27277.90      26414.40      0.032688
      143.00000      25950.80      26414.40      -0.017552
      146.00000      24007.40      26414.40      -0.091126
      149.00000      22345.40      26414.40      -0.154047
      152.00000      21493.10      26414.40      -0.186310
      155.00000      21878.70      26414.40      -0.171713
      158.00000      22175.40      26414.40      -0.160480
      161.00000      22174.80      26414.40      -0.160503
      164.00000      22502.80      26414.40      -0.148086
      167.00000      19876.40      26414.40      -0.247517
      170.00000      22080.00      26414.40      -0.164095
      173.00000      20149.70      26414.40      -0.237169
      176.00000      20749.30      26414.40      -0.214472
      179.00000      22219.70      26414.40      -0.158806
      181.00000      22219.70      26414.40      -0.158806
      184.00000      20749.30      26414.40      -0.214472
      187.00000      20149.70      26414.40      -0.237169
      190.00000      22080.00      26414.40      -0.164095
      193.00000      19876.40      26414.40      -0.247517
      196.00000      22502.80      26414.40      -0.148086
      199.00000      22174.80      26414.40      -0.160503
      202.00000      22175.40      26414.40      -0.160480
      205.00000      21878.70      26414.40      -0.171713
      208.00000      21493.10      26414.40      -0.186310
      211.00000      22345.40      26414.40      -0.154047
      214.00000      24007.40      26414.40      -0.091126
      217.00000      25950.80      26414.40      -0.017552
      220.00000      27277.90      26414.40      0.032688
      223.00000      28448.70      26414.40      0.077014
      226.00000      28015.90      26414.40      0.060630
      229.00000      27173.30      26414.40      0.028729
      232.00000      26347.30      26414.40      -0.002541
      235.00000      26072.60      26414.40      -0.012940
      238.00000      25463.50      26414.40      -0.036002
      241.00000      26112.10      26414.40      -0.011447
      244.00000      26161.10      26414.40      -0.009590
      247.00000      25714.20      26414.40      -0.026510
      250.00000      26752.50      26414.40      0.012800
      253.00000      28992.20      26414.40      0.097589
      256.00000      30802.10      26414.40      0.166108
      259.00000      33127.70      26414.40      0.254152
      262.00000      33880.50      26414.40      0.282651
      265.00000      32250.70      26414.40      0.220951
      268.00000      30099.20      26414.40      0.139498
      272.00000      30099.20      26414.40      0.139498
      275.00000      32250.70      26414.40      0.220951
      278.00000      33880.50      26414.40      0.282651
      281.00000      33127.70      26414.40      0.254152
      284.00000      30802.10      26414.40      0.166108
      287.00000      28992.20      26414.40      0.097589
      290.00000      26752.50      26414.40      0.012800
      293.00000      25714.20      26414.40      -0.026510
      296.00000      26161.10      26414.40      -0.009590
      299.00000      26112.10      26414.40      -0.011447
      302.00000      25463.50      26414.40      -0.036002
      305.00000      26072.60      26414.40      -0.012940
      308.00000      26347.30      26414.40      -0.002541
      311.00000      27173.30      26414.40      0.028729
      314.00000      28015.90      26414.40      0.060630
      317.00000      28448.70      26414.40      0.077014
      320.00000      27277.90      26414.40      0.032688
      323.00000      25950.80      26414.40      -0.017552
      326.00000      24007.40      26414.40      -0.091126
      329.00000      22345.40      26414.40      -0.154047
      332.00000      21493.10      26414.40      -0.186310
      335.00000      21878.70      26414.40      -0.171713
      338.00000      22175.40      26414.40      -0.160480
      341.00000      22174.80      26414.40      -0.160503
      344.00000      22502.80      26414.40      -0.148086
      347.00000      19876.40      26414.40      -0.247517
      350.00000      22080.00      26414.40      -0.164095
      353.00000      20149.70      26414.40      -0.237169
      356.00000      20749.30      26414.40      -0.214472
      359.00000      22219.70      26414.40      -0.158806
